Freq (hertz)	Ra (norm)	Xa (norm)	Za (norm)	SPL (dB)	Ze (ohms)	Xd (mm) 	WPhase (deg)	UPhase (deg)	CPhase (deg)	Delay (msec)	Efficiency (%)	Ein (volts)	Pin (watts)	Iin (amps)	ZePhase (deg)

10.000000	0.000044	0.064599	0.064599	57.565882	6.196629	0.793980	165.447127	165.447127	165.447127	4.049002	0.000276	2.830000	1.256430	0.456700	13.560644
10.144045	0.000045	0.065537	0.065537	57.815850	6.202497	0.793758	165.237153	165.237153	165.237153	4.049294	0.000292	2.830000	1.254205	0.456268	13.755399
10.290166	0.000046	0.066489	0.066489	58.065862	6.208545	0.793529	165.024139	165.024139	165.024139	4.049595	0.000310	2.830000	1.251918	0.455823	13.952933
10.438391	0.000048	0.067456	0.067456	58.315920	6.214779	0.793294	164.808040	164.808040	164.808040	4.049905	0.000329	2.830000	1.249568	0.455366	14.153286
10.588751	0.000049	0.068436	0.068436	58.566026	6.221205	0.793051	164.588812	164.588812	164.588812	4.050225	0.000349	2.830000	1.247153	0.454896	14.356495
10.741277	0.000051	0.069431	0.069431	58.816179	6.227830	0.792802	164.366408	164.366408	164.366408	4.050554	0.000371	2.830000	1.244672	0.454412	14.562602
10.896000	0.000052	0.070441	0.070441	59.066383	6.234659	0.792546	164.140781	164.140781	164.140781	4.050894	0.000394	2.830000	1.242121	0.453914	14.771646
11.052951	0.000054	0.071466	0.071466	59.316639	6.241699	0.792282	163.911885	163.911885	163.911885	4.051245	0.000418	2.830000	1.239501	0.453402	14.983668
11.212164	0.000055	0.072506	0.072506	59.566948	6.248958	0.792011	163.679672	163.679672	163.679672	4.051606	0.000444	2.830000	1.236809	0.452875	15.198710
11.373670	0.000057	0.073562	0.073562	59.817311	6.256443	0.791732	163.444092	163.444092	163.444092	4.051979	0.000471	2.830000	1.234043	0.452334	15.416813
11.537502	0.000059	0.074633	0.074633	60.067730	6.264161	0.791445	163.205096	163.205096	163.205096	4.052364	0.000500	2.830000	1.231201	0.451776	15.638020
11.703695	0.000061	0.075720	0.075720	60.318208	6.272119	0.791149	162.962634	162.962634	162.962634	4.052760	0.000531	2.830000	1.228282	0.451203	15.862374
11.872281	0.000062	0.076823	0.076823	60.568745	6.280327	0.790846	162.716656	162.716656	162.716656	4.053169	0.000564	2.830000	1.225283	0.450613	16.089918
12.043295	0.000064	0.077943	0.077943	60.819343	6.288792	0.790533	162.467109	162.467109	162.467109	4.053591	0.000599	2.830000	1.222202	0.450007	16.320696
12.216773	0.000066	0.079080	0.079080	61.070005	6.297522	0.790211	162.213940	162.213940	162.213940	4.054026	0.000636	2.830000	1.219037	0.449383	16.554753
12.392750	0.000068	0.080233	0.080233	61.320731	6.306528	0.789881	161.957096	161.957096	161.957096	4.054475	0.000676	2.830000	1.215787	0.448741	16.792134
12.571262	0.000070	0.081404	0.081404	61.571525	6.315817	0.789540	161.696524	161.696524	161.696524	4.054938	0.000718	2.830000	1.212449	0.448081	17.032884
12.752345	0.000072	0.082592	0.082592	61.822388	6.325401	0.789190	161.432167	161.432167	161.432167	4.055416	0.000763	2.830000	1.209020	0.447402	17.277050
12.936037	0.000075	0.083798	0.083798	62.073322	6.335289	0.788830	161.163971	161.163971	161.163971	4.055909	0.000811	2.830000	1.205499	0.446704	17.524678
13.122374	0.000077	0.085023	0.085023	62.324329	6.345491	0.788460	160.891877	160.891877	160.891877	4.056418	0.000862	2.830000	1.201884	0.445986	17.775815
13.311396	0.000079	0.086265	0.086265	62.575412	6.356018	0.788079	160.615829	160.615829	160.615829	4.056943	0.000916	2.830000	1.198171	0.445247	18.030510
13.503140	0.000082	0.087526	0.087526	62.826573	6.366882	0.787687	160.335768	160.335768	160.335768	4.057484	0.000973	2.830000	1.194359	0.444488	18.288810
13.697647	0.000084	0.088807	0.088807	63.077813	6.378094	0.787283	160.051634	160.051634	160.051634	4.058044	0.001035	2.830000	1.190446	0.443706	18.550765
13.894955	0.000087	0.090106	0.090106	63.329136	6.389667	0.786868	159.763367	159.763367	159.763367	4.058621	0.001100	2.830000	1.186428	0.442903	18.816424
14.095105	0.000089	0.091426	0.091426	63.580543	6.401613	0.786442	159.470905	159.470905	159.470905	4.059217	0.001170	2.830000	1.182303	0.442076	19.085836
14.298139	0.000092	0.092765	0.092765	63.832039	6.413945	0.786003	159.174186	159.174186	159.174186	4.059832	0.001244	2.830000	1.178070	0.441226	19.359053
14.504097	0.000095	0.094124	0.094124	64.083624	6.426678	0.785551	158.873147	158.873147	158.873147	4.060467	0.001323	2.830000	1.173724	0.440352	19.636125
14.713021	0.000098	0.095504	0.095505	64.335302	6.439825	0.785087	158.567723	158.567723	158.567723	4.061123	0.001407	2.830000	1.169265	0.439453	19.917104
14.924955	0.000101	0.096906	0.096906	64.587075	6.453402	0.784609	158.257849	158.257849	158.257849	4.061800	0.001497	2.830000	1.164688	0.438528	20.202042
15.139942	0.000104	0.098328	0.098328	64.838947	6.467424	0.784118	157.943458	157.943458	157.943458	4.062499	0.001593	2.830000	1.159991	0.437578	20.490992
15.358026	0.000107	0.099772	0.099772	65.090920	6.481907	0.783613	157.624482	157.624482	157.624482	4.063222	0.001695	2.830000	1.155172	0.436600	20.784007
15.579251	0.000111	0.101238	0.101238	65.342998	6.496868	0.783093	157.300853	157.300853	157.300853	4.063968	0.001804	2.830000	1.150228	0.435595	21.081140
15.803663	0.000114	0.102727	0.102727	65.595183	6.512325	0.782558	156.972501	156.972501	156.972501	4.064738	0.001920	2.830000	1.145156	0.434561	21.382446
16.031307	0.000118	0.104238	0.104238	65.847479	6.528297	0.782008	156.639356	156.639356	156.639356	4.065535	0.002044	2.830000	1.139953	0.433497	21.687980
16.262231	0.000121	0.105773	0.105773	66.099889	6.544802	0.781443	156.301344	156.301344	156.301344	4.066357	0.002177	2.830000	1.134616	0.432404	21.997796
16.496481	0.000125	0.107331	0.107331	66.352417	6.561861	0.780861	155.958392	155.958392	155.958392	4.067207	0.002318	2.830000	1.129143	0.431280	22.311950
16.734105	0.000129	0.108913	0.108913	66.605066	6.579494	0.780263	155.610427	155.610427	155.610427	4.068086	0.002470	2.830000	1.123530	0.430124	22.630498
16.975152	0.000133	0.110519	0.110519	66.857840	6.597724	0.779647	155.257372	155.257372	155.257372	4.068993	0.002631	2.830000	1.117775	0.428936	22.953498
17.219671	0.000137	0.112151	0.112151	67.110743	6.616573	0.779014	154.899150	154.899150	154.899150	4.069932	0.002804	2.830000	1.111874	0.427714	23.281005
17.467712	0.000142	0.113807	0.113808	67.363778	6.636066	0.778363	154.535683	154.535683	154.535683	4.070902	0.002988	2.830000	1.105825	0.426457	23.613077
17.719326	0.000146	0.115490	0.115490	67.616950	6.656228	0.777694	154.166891	154.166891	154.166891	4.071905	0.003185	2.830000	1.099624	0.425166	23.949773
17.974565	0.000151	0.117198	0.117198	67.870263	6.677085	0.777005	153.792693	153.792693	153.792693	4.072942	0.003396	2.830000	1.093269	0.423838	24.291149
18.233480	0.000155	0.118934	0.118934	68.123720	6.698664	0.776297	153.413007	153.413007	153.413007	4.074014	0.003622	2.830000	1.086756	0.422472	24.637265
18.496125	0.000160	0.120696	0.120696	68.377328	6.720995	0.775569	153.027748	153.027748	153.027748	4.075123	0.003863	2.830000	1.080082	0.421069	24.988180
18.762553	0.000165	0.122486	0.122486	68.631089	6.744107	0.774820	152.636831	152.636831	152.636831	4.076270	0.004122	2.830000	1.073245	0.419626	25.343952
19.032818	0.000171	0.124304	0.124304	68.885009	6.768034	0.774050	152.240170	152.240170	152.240170	4.077456	0.004399	2.830000	1.066241	0.418142	25.704641
19.306977	0.000176	0.126150	0.126151	69.139093	6.792807	0.773258	151.837677	151.837677	151.837677	4.078684	0.004695	2.830000	1.059067	0.416617	26.070307
19.585085	0.000182	0.128026	0.128026	69.393345	6.818463	0.772444	151.429260	151.429260	151.429260	4.079954	0.005013	2.830000	1.051720	0.415050	26.441008
19.867199	0.000188	0.129932	0.129932	69.647771	6.845038	0.771606	151.014830	151.014830	151.014830	4.081268	0.005354	2.830000	1.044197	0.413438	26.816806
20.153377	0.000194	0.131867	0.131868	69.902377	6.872570	0.770745	150.594291	150.594291	150.594291	4.082628	0.005720	2.830000	1.036496	0.411782	27.197759
20.443677	0.000200	0.133834	0.133834	70.157167	6.901102	0.769860	150.167551	150.167551	150.167551	4.084036	0.006112	2.830000	1.028612	0.410079	27.583928
20.738158	0.000207	0.135832	0.135832	70.412148	6.930675	0.768949	149.734512	149.734512	149.734512	4.085494	0.006532	2.830000	1.020543	0.408330	27.975372
21.036882	0.000214	0.137862	0.137862	70.667324	6.961336	0.768013	149.295075	149.295075	149.295075	4.087003	0.006984	2.830000	1.012287	0.406531	28.372152
21.339908	0.000221	0.139924	0.139925	70.922704	6.993132	0.767050	148.849141	148.849141	148.849141	4.088565	0.007470	2.830000	1.003839	0.404683	28.774326
21.647300	0.000228	0.142020	0.142020	71.178291	7.026113	0.766060	148.396608	148.396608	148.396608	4.090183	0.007991	2.830000	0.995198	0.402783	29.181954
21.959119	0.000235	0.144150	0.144150	71.434094	7.060333	0.765042	147.937371	147.937371	147.937371	4.091860	0.008552	2.830000	0.986361	0.400831	29.595095
22.275430	0.000243	0.146314	0.146314	71.690119	7.095848	0.763996	147.471325	147.471325	147.471325	4.093596	0.009155	2.830000	0.977324	0.398825	30.013806
22.596297	0.000251	0.148513	0.148513	71.946372	7.132718	0.762920	146.998361	146.998361	146.998361	4.095395	0.009804	2.830000	0.968086	0.396763	30.438146
22.921786	0.000260	0.150748	0.150748	72.202862	7.171005	0.761814	146.518370	146.518370	146.518370	4.097260	0.010503	2.830000	0.958644	0.394645	30.868172
23.251963	0.000269	0.153020	0.153020	72.459594	7.210778	0.760676	146.031239	146.031239	146.031239	4.099192	0.011256	2.830000	0.948995	0.392468	31.303939
23.586897	0.000278	0.155329	0.155330	72.716577	7.252105	0.759507	145.536854	145.536854	145.536854	4.101195	0.012068	2.830000	0.939137	0.390232	31.745503
23.926655	0.000287	0.157677	0.157677	72.973818	7.295063	0.758305	145.035099	145.035099	145.035099	4.103271	0.012943	2.830000	0.929067	0.387934	32.192918
24.271307	0.000297	0.160063	0.160063	73.231326	7.339731	0.757069	144.525853	144.525853	144.525853	4.105424	0.013887	2.830000	0.918785	0.385573	32.646235
24.620924	0.000307	0.162489	0.162489	73.489110	7.386193	0.755798	144.008996	144.008996	144.008996	4.107656	0.014907	2.830000	0.908287	0.383147	33.105507
24.975577	0.000318	0.164955	0.164955	73.747176	7.434541	0.754492	143.484404	143.484404	143.484404	4.109972	0.016008	2.830000	0.897573	0.380656	33.570781
25.335338	0.000328	0.167463	0.167463	74.005536	7.484871	0.753149	142.951950	142.951950	142.951950	4.112374	0.017199	2.830000	0.886640	0.378096	34.042105
25.700282	0.000340	0.170013	0.170013	74.264197	7.537284	0.751769	142.411504	142.411504	142.411504	4.114866	0.018487	2.830000	0.875488	0.375467	34.519523
26.070482	0.000352	0.172606	0.172607	74.523169	7.591890	0.750350	141.862936	141.862936	141.862936	4.117452	0.019881	2.830000	0.864114	0.372766	35.003077
26.446016	0.000364	0.175244	0.175244	74.782463	7.648805	0.748892	141.306109	141.306109	141.306109	4.120136	0.021391	2.830000	0.852519	0.369992	35.492806
26.826958	0.000377	0.177926	0.177926	75.042087	7.708155	0.747393	140.740886	140.740886	140.740886	4.122922	0.023028	2.830000	0.840702	0.367144	35.988746
27.213388	0.000390	0.180655	0.180655	75.302054	7.770074	0.745852	140.167127	140.167127	140.167127	4.125815	0.024804	2.830000	0.828662	0.364218	36.490926
27.605384	0.000404	0.183430	0.183431	75.562373	7.834704	0.744268	139.584687	139.584687	139.584687	4.128818	0.026732	2.830000	0.816399	0.361213	36.999375
28.003026	0.000419	0.186254	0.186254	75.823056	7.902199	0.742640	138.993418	138.993418	138.993418	4.131938	0.028826	2.830000	0.803914	0.358128	37.514115
28.406397	0.000434	0.189127	0.189127	76.084114	7.972724	0.740967	138.393172	138.393172	138.393172	4.135178	0.031104	2.830000	0.791207	0.354960	38.035161
28.815578	0.000449	0.192050	0.192051	76.345560	8.046458	0.739247	137.783792	137.783792	137.783792	4.138544	0.033583	2.830000	0.778279	0.351708	38.562524
29.230652	0.000466	0.195025	0.195026	76.607405	8.123592	0.737479	137.165122	137.165122	137.165122	4.142043	0.036283	2.830000	0.765131	0.348368	39.096207
29.651706	0.000483	0.198053	0.198054	76.869662	8.204332	0.735663	136.536999	136.536999	136.536999	4.145678	0.039226	2.830000	0.751766	0.344940	39.636205
30.078825	0.000501	0.201135	0.201136	77.132345	8.288903	0.733796	135.899259	135.899259	135.899259	4.149457	0.042439	2.830000	0.738185	0.341420	40.182504
30.512097	0.000519	0.204272	0.204273	77.395467	8.377545	0.731878	135.251731	135.251731	135.251731	4.153386	0.045948	2.830000	0.724392	0.337808	40.735081
30.951609	0.000539	0.207466	0.207467	77.659043	8.470521	0.729906	134.594242	134.594242	134.594242	4.157472	0.049785	2.830000	0.710389	0.334100	41.293899
31.397452	0.000559	0.210718	0.210719	77.923086	8.568115	0.727880	133.926613	133.926613	133.926613	4.161721	0.053986	2.830000	0.696180	0.330294	41.858911
31.849718	0.000580	0.214029	0.214030	78.187612	8.670636	0.725798	133.248662	133.248662	133.248662	4.166141	0.058589	2.830000	0.681770	0.326389	42.430053
32.308498	0.000602	0.217402	0.217403	78.452637	8.778422	0.723658	132.560201	132.560201	132.560201	4.170740	0.063639	2.830000	0.667164	0.322381	43.007248
32.773887	0.000625	0.220837	0.220838	78.718176	8.891841	0.721460	131.861036	131.861036	131.861036	4.175526	0.069186	2.830000	0.652367	0.318269	43.590396
33.245979	0.000650	0.224337	0.224338	78.984245	9.011295	0.719201	131.150970	131.150970	131.150970	4.180508	0.075286	2.830000	0.637386	0.314050	44.179380
33.724872	0.000675	0.227902	0.227903	79.250863	9.137226	0.716879	130.429800	130.429800	130.429800	4.185693	0.082003	2.830000	0.622228	0.309722	44.774057
34.210663	0.000701	0.231535	0.231536	79.518047	9.270116	0.714494	129.697316	129.697316	129.697316	4.191093	0.089409	2.830000	0.606900	0.305282	45.374256
34.703452	0.000729	0.235238	0.235239	79.785814	9.410501	0.712044	128.953304	128.953304	128.953304	4.196716	0.097586	2.830000	0.591412	0.300728	45.979778
35.203338	0.000758	0.239012	0.239014	80.054185	9.558967	0.709526	128.197541	128.197541	128.197541	4.202573	0.106626	2.830000	0.575773	0.296057	46.590385
35.710426	0.000789	0.242860	0.242861	80.323177	9.716166	0.706939	127.429801	127.429801	127.429801	4.208675	0.116635	2.830000	0.559993	0.291267	47.205802
36.224818	0.000821	0.246783	0.246785	80.592812	9.882819	0.704280	126.649848	126.649848	126.649848	4.215034	0.127735	2.830000	0.544084	0.286356	47.825704
36.746619	0.000855	0.250784	0.250786	80.863111	10.059728	0.701550	125.857440	125.857440	125.857440	4.221661	0.140063	2.830000	0.528058	0.281320	48.449714
37.275937	0.000890	0.254865	0.254867	81.134094	10.247786	0.698744	125.052329	125.052329	125.052329	4.228570	0.153778	2.830000	0.511929	0.276157	49.077395
37.812880	0.000928	0.259029	0.259030	81.405783	10.447994	0.695861	124.234257	124.234257	124.234257	4.235773	0.169061	2.830000	0.495712	0.270865	49.708235
38.357556	0.000967	0.263277	0.263278	81.678202	10.661474	0.692900	123.402959	123.402959	123.402959	4.243285	0.186121	2.830000	0.479422	0.265442	50.341641
38.910079	0.001008	0.267612	0.267614	81.951375	10.889487	0.689857	122.558159	122.558159	122.558159	4.251120	0.205201	2.830000	0.463077	0.259884	50.976922
39.470560	0.001051	0.272038	0.272040	82.225325	11.133460	0.686732	121.699576	121.699576	121.699576	4.259294	0.226577	2.830000	0.446695	0.254189	51.613273
40.039115	0.001097	0.276557	0.276559	82.500077	11.395010	0.683521	120.826916	120.826916	120.826916	4.267824	0.250574	2.830000	0.430295	0.248354	52.249757
40.615860	0.001146	0.281171	0.281174	82.775658	11.675975	0.680222	119.939877	119.939877	119.939877	4.276726	0.277566	2.830000	0.413899	0.242378	52.885278
41.200912	0.001197	0.285885	0.285888	83.052094	11.978461	0.676833	119.038144	119.038144	119.038144	4.286019	0.307988	2.830000	0.397529	0.236257	53.518553
41.794392	0.001250	0.290701	0.290704	83.329412	12.304880	0.673352	118.121393	118.121393	118.121393	4.295722	0.342350	2.830000	0.381211	0.229990	54.148077
42.396421	0.001307	0.295623	0.295626	83.607641	12.658018	0.669776	117.189288	117.189288	117.189288	4.305854	0.381244	2.830000	0.364968	0.223574	54.772075
43.007121	0.001367	0.300655	0.300658	83.886811	13.041105	0.666102	116.241479	116.241479	116.241479	4.316438	0.425365	2.830000	0.348830	0.217006	55.388453
43.626619	0.001431	0.305800	0.305803	84.166950	13.457906	0.662327	115.277604	115.277604	115.277604	4.327495	0.475525	2.830000	0.332825	0.210285	55.994722
44.255040	0.001499	0.311062	0.311066	84.448090	13.912834	0.658450	114.297288	114.297288	114.297288	4.339048	0.532678	2.830000	0.316985	0.203409	56.587916
44.892513	0.001570	0.316446	0.316450	84.730262	14.411099	0.654466	113.300141	113.300141	113.300141	4.351123	0.597946	2.830000	0.301341	0.196376	57.164479
45.539168	0.001646	0.321956	0.321960	85.013499	14.958889	0.650374	112.285755	112.285755	112.285755	4.363746	0.672643	2.830000	0.285930	0.189185	57.720122
46.195138	0.001727	0.327597	0.327602	85.297835	15.563607	0.646170	111.253709	111.253709	111.253709	4.376944	0.758313	2.830000	0.270788	0.181834	58.249640
46.860558	0.001813	0.333374	0.333379	85.583304	16.234183	0.641851	110.203564	110.203564	110.203564	4.390745	0.856768	2.830000	0.255954	0.174324	58.746666
47.535562	0.001904	0.339293	0.339298	85.869941	16.981477	0.637414	109.134861	109.134861	109.134861	4.405181	0.970124	2.830000	0.241469	0.166652	59.203352
48.220290	0.002001	0.345358	0.345364	86.157782	17.818819	0.632855	108.047125	108.047125	108.047125	4.420283	1.100848	2.830000	0.227376	0.158821	59.609932
48.914880	0.002105	0.351576	0.351583	86.446864	18.762732	0.628171	106.939856	106.939856	106.939856	4.436086	1.251792	2.830000	0.213722	0.150831	59.954127
49.619476	0.002215	0.357954	0.357961	86.737225	19.833921	0.623358	105.812537	105.812537	105.812537	4.452624	1.426225	2.830000	0.200553	0.142685	60.220326
50.334221	0.002333	0.364499	0.364506	87.028904	21.058630	0.618413	104.664625	104.664625	104.664625	4.469935	1.627840	2.830000	0.187920	0.134387	60.388426
51.059262	0.002460	0.371216	0.371224	87.321939	22.470536	0.613332	103.495554	103.495554	103.495554	4.488059	1.860726	2.830000	0.175876	0.125943	60.432164
51.794747	0.002595	0.378115	0.378124	87.616370	24.113427	0.608111	102.304732	102.304732	102.304732	4.507038	2.129275	2.830000	0.164475	0.117362	60.316681
52.540826	0.002741	0.385204	0.385213	87.912239	26.045002	0.602745	101.091539	101.091539	101.091539	4.526915	2.437993	2.830000	0.153775	0.108658	59.994879
53.297652	0.002896	0.392491	0.392501	88.209586	28.342313	0.597231	99.855327	99.855327	99.855327	4.547736	2.791168	2.830000	0.143836	0.099851	59.401852
54.065379	0.003064	0.399985	0.399997	88.508453	31.109441	0.591564	98.595417	98.595417	98.595417	4.569549	3.192339	2.830000	0.134720	0.090969	58.446193
54.844166	0.003244	0.407698	0.407711	88.808882	34.487936	0.585739	97.311098	97.311098	97.311098	4.592407	3.643538	2.830000	0.126491	0.082058	56.996153
55.634170	0.003439	0.415640	0.415654	89.110916	38.669325	0.579751	96.001623	96.001623	96.001623	4.616362	4.144271	2.830000	0.119217	0.073185	54.857338
56.435554	0.003649	0.423823	0.423839	89.414597	43.903877	0.573596	94.666208	94.666208	94.666208	4.641472	4.690327	2.830000	0.112967	0.064459	51.737064
57.248482	0.003876	0.432259	0.432276	89.719966	50.481441	0.567268	93.304034	93.304034	93.304034	4.667794	5.272580	2.830000	0.107812	0.056060	47.190867
58.073119	0.004121	0.440962	0.440981	90.027068	58.602680	0.560763	91.914235	91.914235	91.914235	4.695391	5.876147	2.830000	0.103827	0.048291	40.560555
58.909635	0.004387	0.449947	0.449969	90.335942	67.924160	0.554073	90.495905	90.495905	90.495905	4.724329	6.480369	2.830000	0.101085	0.041664	30.983611
59.758201	0.004677	0.459230	0.459254	90.646630	76.525784	0.547193	89.048091	89.048091	89.048091	4.754676	7.060078	2.830000	0.099666	0.036981	17.764282
60.618990	0.004991	0.468829	0.468855	90.959173	80.344800	0.540118	87.569790	87.569790	87.569790	4.786502	7.588320	2.830000	0.099647	0.035223	1.501326
61.492178	0.005335	0.478761	0.478791	91.273607	76.490817	0.532841	86.059948	86.059948	86.059948	4.819882	8.040170	2.830000	0.101109	0.036998	-15.057752
62.377944	0.005709	0.489049	0.489082	91.589970	67.344146	0.525355	84.517454	84.517454	84.517454	4.854894	8.396697	2.830000	0.104132	0.042023	-28.882943
63.276469	0.006119	0.499714	0.499751	91.908297	57.224064	0.517653	82.941141	82.941141	82.941141	4.891618	8.647866	2.830000	0.108797	0.049455	-38.980709
64.187937	0.006569	0.510781	0.510823	92.228620	48.376831	0.509729	81.329778	81.329778	81.329778	4.930139	8.793509	2.830000	0.115185	0.058499	-45.912293
65.112534	0.007062	0.522277	0.522325	92.550965	41.241902	0.501574	79.682071	79.682071	79.682071	4.970541	8.842215	2.830000	0.123376	0.068620	-50.555942
66.050449	0.007606	0.534232	0.534286	92.875358	35.602301	0.493181	77.996657	77.996657	77.996657	5.012914	8.808766	2.830000	0.133449	0.079489	-53.613719
67.001875	0.008206	0.546678	0.546739	93.201818	31.129653	0.484542	76.272100	76.272100	76.272100	5.057350	8.711074	2.830000	0.145480	0.090910	-55.565398
67.967006	0.008871	0.559651	0.559722	93.530359	27.540556	0.475648	74.506891	74.506891	74.506891	5.103941	8.567460	2.830000	0.159543	0.102758	-56.727057
68.946038	0.009607	0.573192	0.573273	93.860987	24.619652	0.466492	72.699439	72.699439	72.699439	5.152781	8.394736	2.830000	0.175706	0.114949	-57.307787
69.939174	0.010427	0.587346	0.587438	94.193702	22.209102	0.457064	70.848072	70.848072	70.848072	5.203966	8.207172	2.830000	0.194031	0.127425	-57.448461
70.946615	0.011341	0.602161	0.602268	94.528493	20.193795	0.447355	68.951033	68.951033	68.951033	5.257589	8.016160	2.830000	0.214574	0.140142	-57.246127
71.968567	0.012364	0.617693	0.617817	94.865341	18.489165	0.437355	67.006476	67.006476	67.006476	5.313743	7.830353	2.830000	0.237382	0.153063	-56.769137
73.005241	0.013512	0.634004	0.634148	95.204212	17.032331	0.427057	65.012465	65.012465	65.012465	5.372517	7.656051	2.830000	0.262489	0.166155	-56.066630
74.056847	0.014804	0.651164	0.651333	95.545059	15.775888	0.416449	62.966969	62.966969	62.966969	5.433997	7.497662	2.830000	0.289917	0.179388	-55.174574
75.123601	0.016265	0.669253	0.669451	95.887821	14.683605	0.405523	60.867866	60.867866	60.867866	5.498259	7.358160	2.830000	0.319674	0.192732	-54.119711
76.205721	0.017922	0.688359	0.688592	96.232415	13.727420	0.394270	58.712937	58.712937	58.712937	5.565372	7.239480	2.830000	0.351745	0.206157	-52.922195
77.303429	0.019809	0.708585	0.708861	96.578742	12.885333	0.382679	56.499872	56.499872	56.499872	5.635391	7.142846	2.830000	0.386098	0.219630	-51.597381
78.416948	0.021968	0.730046	0.730376	96.926675	12.139901	0.370742	54.226270	54.226270	54.226270	5.708355	7.069026	2.830000	0.422671	0.233116	-50.157076
79.546508	0.024447	0.752877	0.753274	97.276065	11.477156	0.358452	51.889644	51.889644	51.889644	5.784283	7.018523	2.830000	0.461376	0.246577	-48.610436
80.692338	0.027309	0.777231	0.777711	97.626732	10.885810	0.345800	49.487428	49.487428	49.487428	5.863166	6.991729	2.830000	0.502092	0.259971	-46.964608
81.854673	0.030630	0.803288	0.803872	97.978461	10.356676	0.332781	47.016987	47.016987	47.016987	5.944966	6.989030	2.830000	0.544658	0.273254	-45.225219
83.033751	0.034506	0.831254	0.831970	98.331005	9.882224	0.319390	44.475631	44.475631	44.475631	6.029607	7.010889	2.830000	0.588873	0.286373	-43.396738
84.229813	0.039055	0.861374	0.862259	98.684074	9.456254	0.305625	41.860632	41.860632	41.860632	6.116965	7.057915	2.830000	0.634491	0.299273	-41.482774
85.443104	0.044429	0.893932	0.895036	99.037335	9.073648	0.291485	39.169244	39.169244	39.169244	6.206867	7.130917	2.830000	0.681212	0.311892	-39.486306
86.673872	0.050823	0.929269	0.930657	99.390408	8.730169	0.276975	36.398732	36.398732	36.398732	6.299073	7.230944	2.830000	0.728686	0.324163	-37.409886
87.922369	0.058488	0.967785	0.969551	99.742861	8.422315	0.262102	33.546406	33.546406	33.546406	6.393276	7.359337	2.830000	0.776500	0.336012	-35.255813
89.188849	0.067752	1.009963	1.012233	100.094206	8.147207	0.246878	30.609660	30.609660	30.609660	6.489084	7.517769	2.830000	0.824188	0.347358	-33.026292
90.473572	0.079053	1.056380	1.059334	100.443901	7.902492	0.231323	27.586020	27.586020	27.586020	6.586016	7.708290	2.830000	0.871217	0.358115	-30.723591
91.776802	0.092975	1.107735	1.111630	100.791341	7.686279	0.215464	24.473196	24.473196	24.473196	6.683492	7.933388	2.830000	0.917001	0.368189	-28.350195
93.098803	0.110313	1.164870	1.170082	101.135862	7.497082	0.199339	21.269146	21.269146	21.269146	6.780825	8.196037	2.830000	0.960897	0.377480	-25.908957
94.439848	0.132166	1.228807	1.235894	101.476739	7.333780	0.182998	17.972146	17.972146	17.972146	6.877215	8.499775	2.830000	1.002215	0.385886	-23.403267
95.800210	0.160080	1.300772	1.310585	101.813187	7.195591	0.166509	14.580865	14.580865	14.580865	6.971751	8.848779	2.830000	1.040231	0.393296	-20.837222
97.180167	0.196259	1.382222	1.396086	102.144368	7.082047	0.149961	11.094442	11.094442	11.094442	7.063408	9.247956	2.830000	1.074201	0.399602	-18.215811
98.580001	0.243911	1.474829	1.494863	102.469395	6.992986	0.133476	7.512572	7.512572	7.512572	7.151057	9.703047	2.830000	1.103382	0.404691	-15.545116
100.000000	0.307778	1.580373	1.610064	102.787342	6.928541	0.117220	3.835584	3.835584	3.835584	7.233484	10.220743	2.830000	1.127058	0.408455	-12.832520
101.440453	0.394985	1.700399	1.745671	103.097255	6.889150	0.101436	0.064521	0.064521	0.064521	7.309407	10.808810	2.830000	1.144569	0.410791	-10.086940
102.901655	0.516327	1.835306	1.906552	103.398169	6.875554	0.086481	-3.798796	-3.798796	-3.798796	7.377508	11.476229	2.830000	1.155346	0.411603	-7.319067
104.383905	0.688067	1.982125	2.098155	103.689126	6.888818	0.072914	-7.751718	-7.751718	-7.751718	7.436475	12.233326	2.830000	1.158944	0.410811	-4.541627
105.887506	0.933729	2.129391	2.325114	103.969192	6.930342	0.061616	-11.790733	-11.790733	-11.790733	7.485045	13.091897	2.830000	1.155077	0.408349	-1.769663
107.412766	1.283039	2.246401	2.586988	104.237487	7.001888	0.053854	-15.911466	-15.911466	-15.911466	7.522055	14.065294	2.830000	1.143653	0.404177	0.979168
108.959997	1.758424	2.265531	2.867871	104.493201	7.105601	0.050940	-20.108705	-20.108705	-20.108705	7.546497	15.168438	2.830000	1.124796	0.398277	3.684262
110.529514	2.329591	2.072672	3.118167	104.735621	7.244030	0.053231	-24.376461	-24.376461	-24.376461	7.557573	16.417716	2.830000	1.098864	0.390667	6.321711
112.121640	2.841865	1.566579	3.245052	104.964156	7.420143	0.059634	-28.708063	-28.708063	-28.708063	7.554736	17.830654	2.830000	1.066455	0.381394	8.863900
113.736699	3.051356	0.821692	3.160055	105.178350	7.637320	0.068492	-33.096287	-33.096287	-33.096287	7.537735	19.425287	2.830000	1.028400	0.370549	11.279061
115.375023	2.870520	0.114849	2.872816	105.377906	7.899309	0.078471	-37.533515	-37.533515	-37.533515	7.506635	21.219040	2.830000	0.985733	0.358259	13.530784
117.036946	2.463989	-0.346180	2.488189	105.562688	8.210110	0.088706	-42.011914	-42.011914	-42.011914	7.461825	23.226947	2.830000	0.939661	0.344697	15.577519
118.722808	2.029845	-0.560683	2.105858	105.732731	8.573747	0.098665	-46.523626	-46.523626	-46.523626	7.404010	25.458997	2.830000	0.891510	0.330077	17.372121
120.432955	1.661787	-0.616874	1.772588	105.888237	8.993830	0.108015	-51.060969	-51.060969	-51.060969	7.334184	27.916438	2.830000	0.842671	0.314660	18.861594
122.167735	1.376114	-0.591114	1.497700	106.029568	9.472832	0.116542	-55.616620	-55.616620	-55.616620	7.253583	30.587028	2.830000	0.794537	0.298749	19.987301
123.927504	1.160838	-0.528578	1.275516	106.157229	10.010910	0.124108	-60.183783	-60.183783	-60.183783	7.163638	33.439549	2.830000	0.748440	0.282692	20.686120
125.712621	0.999369	-0.452375	1.096988	106.271855	10.604148	0.130628	-64.756337	-64.756337	-64.756337	7.065908	36.418446	2.830000	0.705600	0.266877	20.893306
127.523453	0.877666	-0.373493	0.953831	106.374182	11.242181	0.136056	-69.328946	-69.328946	-69.328946	6.962020	39.440199	2.830000	0.667073	0.251731	20.548094
129.360368	0.785276	-0.296831	0.839504	106.465030	11.905433	0.140374	-73.897131	-73.897131	-73.897131	6.853607	42.393658	2.830000	0.633719	0.237707	19.603204
131.223743	0.714748	-0.224337	0.749127	106.545272	12.562823	0.143590	-78.457317	-78.457317	-78.457317	6.742251	45.146626	2.830000	0.606173	0.225268	18.038793
133.113960	0.660823	-0.156568	0.679118	106.615816	13.171625	0.145730	-83.006839	-83.006839	-83.006839	6.629442	47.559802	2.830000	0.584838	0.214856	15.879535
135.031404	0.619796	-0.093451	0.626802	106.677576	13.681636	0.146839	-87.543917	-87.543917	-87.543917	6.516537	49.506677	2.830000	0.569886	0.206847	13.210018
136.976468	0.589038	-0.034655	0.590057	106.731455	14.044787	0.146972	-92.067613	-92.067613	-92.067613	6.404737	50.894814	2.830000	0.561263	0.201498	10.180036
138.949549	0.566681	0.020230	0.567042	106.778328	14.228024	0.146196	-96.577763	-96.577763	-96.577763	6.295076	51.682133	2.830000	0.558710	0.198903	6.991629
140.951052	0.551395	0.071602	0.556024	106.819027	14.223594	0.144590	-101.074900	-101.074900	-101.074900	6.188411	51.882806	2.830000	0.561789	0.198965	3.867119
142.981386	0.542242	0.119803	0.555319	106.854326	14.050816	0.142235	-105.560164	-105.560164	-105.560164	6.085426	51.561198	2.830000	0.569907	0.201412	1.008917
145.040966	0.538574	0.165097	0.563311	106.884940	13.748517	0.139222	-110.035212	-110.035212	-110.035212	5.986641	50.816772	2.830000	0.582346	0.205840	-1.432383
147.130213	0.539957	0.207659	0.578512	106.911512	13.362995	0.135647	-114.502125	-114.502125	-114.502125	5.892422	49.765525	2.830000	0.598297	0.211779	-3.370910
149.249555	0.546119	0.247555	0.599608	106.934615	12.937605	0.131610	-118.963318	-118.963318	-118.963318	5.802998	48.523281	2.830000	0.616887	0.218742	-4.780221
151.399424	0.556907	0.284737	0.625476	106.954748	12.507029	0.127214	-123.421461	-123.421461	-123.421461	5.718474	47.193972	2.830000	0.637210	0.226273	-5.678008
153.580262	0.572248	0.319022	0.655166	106.972338	12.095925	0.122568	-127.879393	-127.879393	-127.879393	5.638851	45.863567	2.830000	0.658355	0.233963	-6.109190
155.792513	0.592106	0.350076	0.687854	106.987742	11.720159	0.117783	-132.340054	-132.340054	-132.340054	5.564036	44.598608	2.830000	0.679434	0.241464	-6.132195
158.036631	0.616435	0.377397	0.722787	107.001249	11.388961	0.112976	-136.806422	-136.806422	-136.806422	5.493866	43.447717	2.830000	0.699604	0.248486	-5.809747
160.313075	0.645116	0.400296	0.759217	107.013086	11.107040	0.108263	-141.281452	-141.281452	-141.281452	5.428112	42.444557	2.830000	0.718093	0.254793	-5.203598
162.622309	0.677874	0.417897	0.796336	107.023424	10.876273	0.103761	-145.768025	-145.768025	-145.768025	5.366499	41.611139	2.830000	0.734222	0.260199	-4.372042
164.964807	0.714181	0.429161	0.833207	107.032378	10.696914	0.099586	-150.268909	-150.268909	-150.268909	5.308716	40.960866	2.830000	0.747417	0.264562	-3.369192
167.341048	0.753137	0.432950	0.868712	107.040022	10.568382	0.095845	-154.786717	-154.786717	-154.786717	5.254422	40.500993	2.830000	0.757235	0.267780	-2.245215
169.751517	0.793360	0.428162	0.901522	107.046385	10.489752	0.092630	-159.323876	-159.323876	-159.323876	5.203263	40.234415	2.830000	0.763370	0.269787	-1.047077
172.196708	0.832913	0.413934	0.930100	107.051466	10.460012	0.090015	-163.882607	-163.882607	-163.882607	5.154875	40.160808	2.830000	0.765665	0.270554	0.180522
174.677121	0.869330	0.389933	0.952776	107.055238	10.478156	0.088042	-168.464901	-168.464901	-168.464901	5.108894	40.277153	2.830000	0.764116	0.270086	1.394199
177.193263	0.899793	0.356648	0.967897	107.057654	10.543142	0.086722	-173.072508	-173.072508	-173.072508	5.064964	40.577716	2.830000	0.758878	0.268421	2.551011
179.745648	0.921492	0.315626	0.974047	107.058657	10.653729	0.086027	-177.706932	-177.706932	-177.706932	5.022741	41.053515	2.830000	0.750256	0.265635	3.607784
182.334800	0.932132	0.269495	0.970308	107.058182	10.808184	0.085897	177.630573	-182.369427	177.630573	4.981903	41.691326	2.830000	0.738698	0.261839	4.520725
184.961247	0.930435	0.221707	0.956485	107.056171	11.003852	0.086243	172.938989	-187.061011	172.938989	4.942156	42.472310	2.830000	0.724779	0.257183	5.245498
187.625527	0.916463	0.176010	0.933212	107.052571	11.236556	0.086956	168.217532	-191.782468	168.217532	4.903236	43.370391	2.830000	0.709183	0.251857	5.737968
190.328185	0.891611	0.135817	0.901896	107.047350	11.499861	0.087918	163.465621	-196.534379	163.465621	4.864918	44.350627	2.830000	0.692675	0.246090	5.955901
193.069773	0.858282	0.103685	0.864522	107.040495	11.784242	0.089008	158.682861	-201.317139	158.682861	4.827017	45.368000	2.830000	0.676074	0.240151	5.861942
195.850852	0.819365	0.081059	0.823365	107.032023	12.076332	0.090113	153.869003	-206.130997	153.869003	4.789396	46.367185	2.830000	0.660216	0.234343	5.428120
198.671992	0.777734	0.068307	0.780728	107.021982	12.358549	0.091130	149.023912	-210.976088	149.023912	4.751963	47.283980	2.830000	0.645920	0.228991	4.641838
201.533769	0.735878	0.064957	0.738740	107.010460	12.609568	0.091967	144.147514	-215.852486	144.147514	4.714680	48.049012	2.830000	0.633951	0.224433	3.512719
204.436768	0.695727	0.070012	0.699241	106.997583	12.806082	0.092549	139.239757	-220.760243	139.239757	4.677559	48.593926	2.830000	0.624987	0.220989	2.078774
207.381584	0.658633	0.082233	0.663747	106.983519	12.926024	0.092814	134.300549	-225.699451	134.300549	4.640661	48.859552	2.830000	0.619579	0.218938	0.409458
210.368818	0.625453	0.100354	0.633453	106.968479	12.952761	0.092717	129.329705	-230.670295	129.329705	4.604098	48.804606	2.830000	0.618132	0.218486	-1.396898
213.399082	0.596665	0.123206	0.609252	106.952714	12.878948	0.092225	124.326893	-235.673107	124.326893	4.568027	48.412841	2.830000	0.620876	0.219738	-3.222542
216.472995	0.572484	0.149779	0.591753	106.936515	12.708496	0.091322	119.291570	-240.708430	119.291570	4.532648	47.696527	2.830000	0.627855	0.222686	-4.945169
219.591187	0.552970	0.179233	0.581292	106.920207	12.455689	0.090001	114.222932	-245.777068	114.222932	4.498196	46.695090	2.830000	0.638916	0.227205	-6.454163
222.754295	0.538105	0.210890	0.577954	106.904144	12.141866	0.088270	109.119859	-250.880141	109.119859	4.464939	45.469243	2.830000	0.653719	0.233078	-7.663449
225.962966	0.527844	0.244199	0.581595	106.888704	11.791078	0.086150	103.980864	-256.019136	103.980864	4.433165	44.092272	2.830000	0.671742	0.240012	-8.517907
229.217857	0.522165	0.278709	0.591891	106.874277	11.426271	0.083671	98.804058	-261.195942	98.804058	4.403177	42.640825	2.830000	0.692303	0.247675	-8.993222
232.519632	0.521084	0.314028	0.608393	106.861256	11.066874	0.080874	93.587110	-266.412890	93.587110	4.375284	41.187188	2.830000	0.714591	0.255718	-9.091166
235.868968	0.524680	0.349788	0.630588	106.850029	10.727870	0.077813	88.327226	-271.672774	88.327226	4.349790	39.794161	2.830000	0.737697	0.263799	-8.832961
239.266550	0.533094	0.385605	0.657936	106.840965	10.419934	0.074552	83.021138	-276.978862	83.021138	4.326986	38.512681	2.830000	0.760654	0.271595	-8.252770
242.713072	0.546533	0.421030	0.689902	106.834399	10.150148	0.071165	77.665102	-282.334898	77.665102	4.307134	37.381664	2.830000	0.782484	0.278814	-7.392449
246.209240	0.565256	0.455508	0.725949	106.830620	9.922884	0.067736	72.254916	-287.745084	72.254916	4.290463	36.429258	2.830000	0.802243	0.285199	-6.297854
249.755769	0.589540	0.488317	0.765514	106.829861	9.740622	0.064359	66.785951	-293.214049	66.785951	4.277149	35.674760	2.830000	0.819067	0.290536	-5.016601
253.353383	0.619626	0.518516	0.807958	106.832277	9.604609	0.061136	61.253205	-298.746795	61.253205	4.267311	35.130572	2.830000	0.832217	0.294650	-3.596938
257.002820	0.655631	0.544887	0.852499	106.837939	9.515323	0.058172	55.651370	-304.348630	55.651370	4.260992	34.803843	2.830000	0.841126	0.297415	-2.087407
260.704825	0.697401	0.565909	0.898121	106.846819	9.472749	0.055569	49.974931	-310.025069	49.974931	4.258154	34.697527	2.830000	0.845430	0.298752	-0.536989
264.460155	0.744322	0.579783	0.943485	106.858782	9.476478	0.053419	44.218273	-315.781727	44.218273	4.258663	34.810751	2.830000	0.845005	0.298634	1.004529
268.269580	0.795084	0.584567	0.986852	106.873574	9.525638	0.051788	38.375825	-321.624175	38.375825	4.262281	35.138395	2.830000	0.839982	0.297093	2.486220
272.133877	0.847470	0.578466	1.026074	106.890825	9.618635	0.050706	32.442213	-327.557787	32.442213	4.268662	35.669880	2.830000	0.830759	0.294221	3.855978
276.053838	0.898264	0.560308	1.058690	106.910047	9.752720	0.050160	26.412433	-333.587567	26.412433	4.277351	36.387190	2.830000	0.817995	0.290175	5.061125
280.030263	0.943459	0.530150	1.082208	106.930645	9.923354	0.050090	20.282031	-339.717969	20.282031	4.287788	37.262349	2.830000	0.802581	0.285186	6.050078
284.063968	0.978857	0.489795	1.094559	106.951930	10.123437	0.050398	14.047287	-345.952713	14.047287	4.299320	38.254829	2.830000	0.785599	0.279549	6.775571
288.155776	1.001027	0.442919	1.094638	106.973142	10.342536	0.050962	7.705380	-352.294620	7.705380	4.311225	39.309789	2.830000	0.768259	0.273627	7.199850
292.306525	1.008286	0.394572	1.082741	106.993484	10.566420	0.051648	1.254527	-358.745473	1.254527	4.322741	40.358422	2.830000	0.751811	0.267830	7.301923
296.517063	1.001240	0.350128	1.060694	107.012157	10.777372	0.052326	-5.305926	-365.305926	-5.305926	4.333110	41.321874	2.830000	0.737446	0.262587	7.086092
300.788252	0.982605	0.314108	1.031590	107.028407	10.955797	0.052879	-11.975477	-371.975477	-11.975477	4.341622	42.119664	2.830000	0.726190	0.258311	6.589705
305.120965	0.956415	0.289381	0.999235	107.041570	11.083345	0.053212	-18.752524	-378.752524	-18.752524	4.347675	42.682081	2.830000	0.718796	0.255338	5.886720
309.516090	0.927052	0.276983	0.967546	107.051117	11.147027	0.053254	-25.634507	-385.634507	-25.634507	4.350817	42.963918	2.830000	0.715653	0.253879	5.083513
313.974523	0.898491	0.276441	0.940056	107.056699	11.142891	0.052963	-32.618145	-392.618145	-32.618145	4.350802	42.955287	2.830000	0.716717	0.253974	4.305453
318.497179	0.873922	0.286297	0.919623	107.058173	11.077611	0.052326	-39.699749	-399.699749	-39.699749	4.347613	42.685443	2.830000	0.721493	0.255470	3.676830
323.084981	0.855716	0.304596	0.908311	107.055620	10.967154	0.051362	-46.875606	-406.875606	-46.875606	4.341478	42.218067	2.830000	0.729051	0.258043	3.300278
327.738869	0.845570	0.329198	0.907392	107.049345	10.833229	0.050118	-54.142382	-414.142382	-54.142382	4.332856	41.639895	2.830000	0.738107	0.261233	3.242083
332.459793	0.844708	0.357909	0.917404	107.039857	10.699161	0.048676	-61.497520	-421.497520	-61.497520	4.322410	41.046866	2.830000	0.747137	0.264507	3.526489
337.248720	0.854049	0.388459	0.938244	107.027828	10.586666	0.047141	-68.939589	-428.939589	-68.939589	4.310941	40.531914	2.830000	0.754536	0.267317	4.137943
342.106630	0.874288	0.418379	0.969238	107.014048	10.514141	0.045641	-76.468545	-436.468545	-76.468545	4.299328	40.176703	2.830000	0.758796	0.269161	5.027763
347.034515	0.905836	0.444814	1.009158	106.999355	10.496227	0.044315	-84.085867	-444.085867	-84.085867	4.288438	40.047351	2.830000	0.758676	0.269621	6.121704
352.033384	0.948591	0.464332	1.056139	106.984574	10.544069	0.043298	-91.794570	-451.794570	-91.794570	4.279057	40.192700	2.830000	0.753364	0.268397	7.326191
357.104260	1.001479	0.472844	1.107493	106.970455	10.665630	0.042696	-99.599065	-459.599065	-99.599065	4.271817	40.643132	2.830000	0.742596	0.265338	8.532538
362.248179	1.061764	0.465806	1.159447	106.957617	10.865544	0.042572	-107.504907	-467.504907	-107.504907	4.267144	41.408045	2.830000	0.726727	0.260456	9.619698
367.466194	1.124297	0.439004	1.206967	106.946517	11.144049	0.042924	-115.518438	-475.518438	-115.518438	4.265232	42.470749	2.830000	0.706734	0.253947	10.457064
372.759372	1.181169	0.390111	1.243924	106.937438	11.494654	0.043686	-123.646386	-483.646386	-123.646386	4.266049	43.780666	2.830000	0.684157	0.246201	10.909870
378.128796	1.222578	0.320760	1.263956	106.930493	11.900425	0.044741	-131.895460	-491.895460	-131.895460	4.269361	45.244770	2.830000	0.660960	0.237807	10.850777
383.575563	1.239465	0.238011	1.262110	106.925665	12.329680	0.045941	-140.272015	-500.272015	-140.272015	4.274806	46.723286	2.830000	0.639334	0.229527	10.181656
389.100789	1.227160	0.153536	1.236728	106.922852	12.733648	0.047132	-148.781841	-508.781841	-148.781841	4.281969	48.037599	2.830000	0.621439	0.222246	8.867168
394.705603	1.187771	0.080082	1.190467	106.921928	13.050841	0.048168	-157.430125	-517.430125	-157.430125	4.290490	48.997890	2.830000	0.609130	0.216844	6.973363
400.391152	1.129349	0.027137	1.129675	106.922803	13.222260	0.048929	-166.221614	-526.221614	-166.221614	4.300151	49.449789	2.830000	0.603685	0.214033	4.690620
406.158599	1.062496	-0.001431	1.062497	106.925452	13.214231	0.049325	-175.160962	-535.160962	-175.160962	4.310948	49.324492	2.830000	0.605588	0.214163	2.313217
412.009123	0.996876	-0.006866	0.996900	106.929928	13.035139	0.049308	175.746799	-544.253201	175.746799	4.323113	48.666686	2.830000	0.614406	0.217105	0.167075
417.943921	0.939395	0.006554	0.939418	106.936319	12.732613	0.048869	166.495768	-553.504232	166.495768	4.337072	47.622952	2.830000	0.628796	0.222264	-1.482640
423.964207	0.894086	0.033520	0.894714	106.944664	12.373446	0.048045	157.078817	-562.921183	157.078817	4.353332	46.397035	2.830000	0.646652	0.228716	-2.494165
430.071212	0.862817	0.068856	0.865560	106.954834	12.021447	0.046915	147.487534	-572.512466	147.487534	4.372307	45.196269	2.830000	0.665388	0.235413	-2.859117
436.266186	0.846084	0.107905	0.852937	106.966386	11.724728	0.045597	137.712610	-582.287390	137.712610	4.394091	44.191262	2.830000	0.682333	0.241370	-2.675072
442.550395	0.843510	0.146434	0.856126	106.978448	11.512928	0.044240	127.744769	-592.255231	127.744769	4.418244	43.495679	2.830000	0.695173	0.245811	-2.108015
448.925126	0.853975	0.180399	0.872822	106.989656	11.399219	0.043004	117.576216	-602.423784	117.576216	4.443624	43.160327	2.830000	0.702385	0.248263	-1.360820
455.391681	0.875379	0.205811	0.899248	106.998206	11.382458	0.042032	107.202429	-612.797571	107.202429	4.468360	43.172384	2.830000	0.703573	0.248628	-0.649472
461.951385	0.904164	0.218958	0.930299	107.002050	11.447412	0.041419	96.623932	-623.376068	96.623932	4.490014	43.454623	2.830000	0.699622	0.247217	-0.180485
468.605578	0.934908	0.217222	0.959812	106.999252	11.563523	0.041182	85.847507	-634.152493	85.847507	4.505986	43.866987	2.830000	0.692599	0.244735	-0.121062
475.355621	0.960567	0.200480	0.981265	106.988453	11.685162	0.041252	74.886235	-645.113765	74.886235	4.514123	44.220349	2.830000	0.685358	0.242187	-0.558110
482.202895	0.973994	0.172438	0.989141	106.969371	11.758284	0.041491	63.757902	-656.242098	63.757902	4.513407	44.314173	2.830000	0.680909	0.240681	-1.455339
489.148802	0.970587	0.140643	0.980724	106.943168	11.736462	0.041725	52.481626	-667.518374	52.481626	4.504540	43.998233	2.830000	0.681673	0.241129	-2.635795
496.194760	0.950569	0.114306	0.957417	106.912570	11.600708	0.041794	41.073156	-678.926844	41.073156	4.490183	43.234373	2.830000	0.688846	0.243951	-3.820507
503.342213	0.919057	0.100924	0.924582	106.881599	11.369149	0.041580	29.539798	-690.460202	29.539798	4.474727	42.119718	2.830000	0.702051	0.248919	-4.721225
510.592621	0.883811	0.103957	0.889904	106.854936	11.088055	0.041029	17.876249	-702.123751	17.876249	4.463563	40.852572	2.830000	0.719397	0.255230	-5.138555
517.947468	0.852456	0.122718	0.861244	106.836962	10.811898	0.040160	6.062585	-713.937415	6.062585	4.461999	39.662834	2.830000	0.737916	0.261749	-5.012593
525.408258	0.830809	0.153725	0.844912	106.830665	10.586629	0.039061	-5.934661	-725.934661	-5.934661	4.473999	38.746938	2.830000	0.754264	0.267318	-4.416779
532.976517	0.822535	0.192130	0.844676	106.836624	10.442225	0.037874	-18.157897	-738.157897	-18.157897	4.500959	38.229452	2.830000	0.765524	0.271015	-3.522091
540.653794	0.829415	0.232521	0.861392	106.852328	10.391376	0.036781	-30.650444	-750.650444	-30.650444	4.540764	38.146987	2.830000	0.769958	0.272341	-2.557884
548.441658	0.851531	0.269160	0.893058	106.872116	10.429062	0.035958	-43.446018	-763.446018	-43.446018	4.587442	38.440313	2.830000	0.767572	0.271357	-1.775478
556.341702	0.886969	0.296110	0.935091	106.888015	10.530587	0.035523	-56.557855	-776.557855	-56.557855	4.631861	38.949872	2.830000	0.760309	0.268741	-1.404191
564.355543	0.931139	0.307895	0.980724	106.891529	10.650573	0.035493	-69.971029	-789.971029	-69.971029	4.663807	39.428867	2.830000	0.751680	0.265713	-1.588270
572.484820	0.976405	0.301191	1.021804	106.876114	10.730241	0.035761	-83.642250	-803.642250	-83.642250	4.675257	39.600150	2.830000	0.745777	0.263741	-2.314746
580.731195	1.013277	0.277244	1.050521	106.839524	10.718693	0.036142	-97.509964	-817.509964	-97.509964	4.663757	39.262009	2.830000	0.745889	0.264025	-3.381411
589.096355	1.033933	0.243152	1.062140	106.784987	10.599218	0.036442	-111.513404	-831.513404	-111.513404	4.634192	38.389539	2.830000	0.753321	0.267001	-4.462984
597.582011	1.036385	0.209759	1.057399	106.720415	10.397827	0.036522	-125.614276	-845.614276	-125.614276	4.597718	37.148266	2.830000	0.767003	0.272172	-5.260353
606.189899	1.025748	0.186640	1.042590	106.655709	10.164933	0.036339	-139.812371	-859.812371	-139.812371	4.568088	35.801133	2.830000	0.784095	0.278408	-5.629685
614.921780	1.011364	0.177903	1.026892	106.599008	9.947739	0.035942	-154.148441	-874.148441	-154.148441	4.556819	34.580635	2.830000	0.801239	0.284487	-5.611632
623.779440	1.002401	0.181461	1.018693	106.553122	9.772688	0.035448	-168.692091	-888.692091	-168.692091	4.568785	33.601799	2.830000	0.815913	0.289583	-5.376314
632.764690	1.004830	0.190840	1.022792	106.513414	9.640650	0.034994	176.483198	-903.516802	176.483198	4.599416	32.833536	2.830000	0.827405	0.293549	-5.137745
641.879368	1.020118	0.197497	1.039060	106.468168	9.529782	0.034691	161.332019	-918.667981	161.332019	4.634584	32.115957	2.830000	0.837125	0.296964	-5.065608
651.125339	1.044679	0.193044	1.062365	106.402148	9.405026	0.034565	145.865372	-934.134628	145.865372	4.654470	31.224173	2.830000	0.848044	0.300903	-5.205150
660.504493	1.069940	0.172063	1.083687	106.302872	9.235825	0.034542	130.160397	-949.839603	130.160397	4.641702	29.980817	2.830000	0.863253	0.306415	-5.437995
670.018750	1.084411	0.135553	1.092850	106.167235	9.015359	0.034479	114.339209	-965.660791	114.339209	4.590770	28.369797	2.830000	0.884223	0.313909	-5.533029
679.670056	1.078961	0.092604	1.082928	106.004794	8.765409	0.034234	98.519694	-981.480306	98.519694	4.512790	26.559385	2.830000	0.909820	0.322860	-5.277530
689.460384	1.052736	0.056905	1.054273	105.835249	8.521716	0.033730	82.760655	-997.239345	82.760655	4.431738	24.806706	2.830000	0.936807	0.332093	-4.591001
699.391737	1.014168	0.039230	1.014926	105.680989	8.314487	0.032982	67.029176	-1012.970824	67.029176	4.374448	23.328505	2.830000	0.961405	0.340370	-3.543528
709.466146	0.975841	0.042245	0.976755	105.558049	8.158251	0.032077	51.204769	-1028.795231	51.204769	4.359992	22.226619	2.830000	0.980903	0.346888	-2.299830
719.685673	0.948317	0.060971	0.950275	105.468890	8.051059	0.031143	35.118125	-1044.881875	35.118125	4.392041	21.475153	2.830000	0.994597	0.351507	-1.048327
730.052407	0.937002	0.086253	0.940964	105.399475	7.977382	0.030305	18.614278	-1061.385722	18.614278	4.455140	20.937734	2.830000	1.003950	0.354753	0.059817
740.568469	0.941557	0.107975	0.947728	105.322772	7.913220	0.029635	1.624231	-1078.375769	1.624231	4.516989	20.408615	2.830000	1.011948	0.357629	0.965051
751.236010	0.956038	0.117729	0.963260	105.209933	7.835895	0.029114	-15.785168	-1095.785168	-15.785168	4.540706	19.697099	2.830000	1.021611	0.361159	1.733925
762.057212	0.969931	0.112086	0.976386	105.046094	7.736891	0.028636	-33.425287	-1113.425287	-33.425287	4.505919	18.737888	2.830000	1.034149	0.365780	2.529363
773.034288	0.972047	0.095755	0.976752	104.841512	7.627153	0.028074	-51.080825	-1131.080825	-51.080825	4.424936	17.637968	2.830000	1.048086	0.371043	3.505677
784.169484	0.957274	0.080822	0.960680	104.628791	7.528109	0.027357	-68.638932	-1148.638932	-68.638932	4.338606	16.601770	2.830000	1.060276	0.375924	4.708061
795.465078	0.930815	0.079891	0.934238	104.446658	7.457412	0.026502	-86.170718	-1166.170718	-86.170718	4.294733	15.805466	2.830000	1.067955	0.379488	6.057789
806.923378	0.905077	0.098411	0.910411	104.319495	7.420698	0.025602	-103.921355	-1183.921355	-103.921355	4.325108	15.316314	2.830000	1.070261	0.381366	7.406278
818.546731	0.892638	0.132668	0.902443	104.241517	7.409878	0.024779	-122.216866	-1202.216866	-122.216866	4.429448	15.066022	2.830000	1.068679	0.381923	8.603188
830.337512	0.901409	0.172493	0.917765	104.171668	7.404811	0.024138	-141.310442	-1221.310442	-141.310442	4.566612	14.855349	2.830000	1.066543	0.382184	9.565430
842.298134	0.932589	0.204492	0.954746	104.046624	7.381085	0.023692	-161.209954	-1241.209954	-161.209954	4.662766	14.421916	2.830000	1.067416	0.383412	10.345788
854.431043	0.978947	0.215327	1.002349	103.815470	7.326691	0.023336	178.400798	-1261.599202	178.400798	4.653082	13.609178	2.830000	1.072530	0.386259	11.136330
866.738721	1.024076	0.197842	1.043012	103.477532	7.253791	0.022908	158.012003	-1281.987997	158.012003	4.537021	12.509969	2.830000	1.079422	0.390141	12.136287
879.223685	1.048441	0.159217	1.060461	103.087340	7.187843	0.022311	137.967562	-1302.032438	137.967562	4.384297	11.387679	2.830000	1.083910	0.393720	13.396619
891.888489	1.043803	0.120588	1.050746	102.718620	7.147054	0.021563	118.245885	-1321.754115	118.245885	4.281071	10.466356	2.830000	1.083330	0.395967	14.815977
904.735724	1.021371	0.101675	1.026419	102.418924	7.134283	0.020753	98.497325	-1341.502675	98.497325	4.276319	9.818833	2.830000	1.077772	0.396676	16.245213
917.768017	1.001982	0.106136	1.007587	102.183256	7.140369	0.019978	78.263261	-1361.736739	78.263261	4.359597	9.374071	2.830000	1.069281	0.396338	17.575147
930.988035	1.000926	0.122013	1.008336	101.955794	7.150762	0.019294	57.258407	-1382.741593	57.258407	4.462594	8.970556	2.830000	1.060363	0.395762	18.782644
944.398480	1.020261	0.130670	1.028594	101.664383	7.154604	0.018689	35.594942	-1404.405058	35.594942	4.493647	8.452646	2.830000	1.052301	0.395550	19.939399
958.002097	1.047330	0.116887	1.053832	101.277197	7.153279	0.018089	13.749911	-1426.250089	13.749911	4.410264	7.791849	2.830000	1.044175	0.395623	21.152665
971.801667	1.059989	0.080304	1.063026	100.834683	7.158312	0.017429	-7.799265	-1447.799265	-7.799265	4.262873	7.106863	2.830000	1.033915	0.395345	22.465848
985.800014	1.043237	0.040273	1.044014	100.419866	7.179831	0.016708	-28.960689	-1468.960689	-28.960689	4.148734	6.545170	2.830000	1.020375	0.394160	23.830072
1000.000000	1.004577	0.020853	1.004793	100.096953	7.219494	0.015969	-50.085509	-1490.085509	-50.085509	4.135010	6.174703	2.830000	1.004092	0.391994	25.160174
1014.404530	0.966484	0.029567	0.966936	99.869100	7.271432	0.015270	-71.717188	-1511.717188	-71.717188	4.220142	5.962919	2.830000	0.986610	0.389194	26.393547
1029.016551	0.946590	0.055112	0.948193	99.676205	7.326369	0.014646	-94.226635	-1534.226635	-94.226635	4.334312	5.804757	2.830000	0.969462	0.386276	27.520806
1043.839051	0.947694	0.079282	0.951004	99.437310	7.377544	0.014088	-117.530358	-1557.530358	-117.530358	4.383049	5.587719	2.830000	0.953215	0.383597	28.589451
1058.875063	0.958751	0.089288	0.962900	99.118640	7.425977	0.013556	-141.154810	-1581.154810	-141.154810	4.332174	5.281333	2.830000	0.937162	0.381095	29.662973
1074.127661	0.963630	0.086679	0.967521	98.762629	7.478285	0.013019	-164.698172	-1604.698172	-164.698172	4.246055	4.954873	2.830000	0.920290	0.378429	30.759916
1089.599965	0.955935	0.086050	0.959800	98.438404	7.538738	0.012479	171.772400	-1628.227600	171.772400	4.217500	4.689378	2.830000	0.902443	0.375394	31.846506
1105.295141	0.945953	0.099626	0.951184	98.166421	7.605302	0.011965	147.811891	-1652.188109	147.811891	4.275007	4.494830	2.830000	0.884348	0.372109	32.882835
1121.216399	0.949777	0.124062	0.957845	97.890663	7.672211	0.011494	123.070433	-1676.929567	123.070433	4.352048	4.303792	2.830000	0.866781	0.368864	33.866107
1137.366994	0.973692	0.142995	0.984136	97.528844	7.736276	0.011057	97.730507	-1702.269493	97.730507	4.344397	4.039328	2.830000	0.849708	0.365809	34.836658
1153.750232	1.006772	0.140287	1.016499	97.065048	7.801103	0.010622	72.409214	-1727.590786	72.409214	4.229964	3.706053	2.830000	0.832315	0.362769	35.833709
1170.369462	1.027118	0.116460	1.033700	96.576754	7.872863	0.010174	47.506562	-1752.493438	47.506562	4.103300	3.386281	2.830000	0.814042	0.359463	36.849375
1187.228084	1.024026	0.092488	1.028194	96.154079	7.953418	0.009726	22.772295	-1777.227705	22.772295	4.067008	3.145068	2.830000	0.795192	0.355822	37.844038
1204.329547	1.012039	0.086959	1.015768	95.807619	8.039444	0.009300	-2.421678	-1802.421678	-2.421678	4.127625	2.973893	2.830000	0.776481	0.352014	38.790439
1221.677349	1.013375	0.094232	1.017747	95.457525	8.126360	0.008905	-28.417359	-1828.417359	-28.417359	4.185743	2.809296	2.830000	0.758315	0.348249	39.696716
1239.275037	1.032195	0.091206	1.036217	95.022936	8.213345	0.008530	-54.843703	-1854.843703	-54.843703	4.136231	2.603168	2.830000	0.740433	0.344561	40.594456
1257.126212	1.046772	0.062692	1.048648	94.530825	8.304243	0.008157	-81.013928	-1881.013928	-81.013928	4.005193	2.382518	2.830000	0.722338	0.340790	41.498252
1275.234525	1.030482	0.024994	1.030785	94.099801	8.402379	0.007785	-106.802557	-1906.802557	-106.802557	3.926498	2.213587	2.830000	0.704008	0.336809	42.388018
1293.603680	0.988575	0.012461	0.988653	93.810916	8.506726	0.007426	-132.897211	-1932.897211	-132.897211	3.989709	2.125765	2.830000	0.685916	0.332678	43.234887
1312.237433	0.954551	0.034640	0.955179	93.613233	8.612949	0.007098	-160.173692	-1960.173692	-160.173692	4.145896	2.083931	2.830000	0.668551	0.328575	44.030133
1331.139597	0.951171	0.068321	0.953621	93.358304	8.717354	0.006799	171.229660	-1988.770340	171.229660	4.234092	2.015161	2.830000	0.651951	0.324640	44.795863
1350.314038	0.970531	0.083883	0.974149	92.965199	8.821265	0.006514	142.161697	-2017.838303	142.161697	4.166823	1.887985	2.830000	0.635647	0.320816	45.563209
1369.764677	0.982898	0.075093	0.985762	92.524483	8.929092	0.006232	113.384397	-2046.615603	113.384397	4.062587	1.750799	2.830000	0.619307	0.316942	46.333195
1389.495494	0.972416	0.068081	0.974796	92.165774	9.042043	0.005956	84.574757	-2075.425243	84.574757	4.073611	1.655217	2.830000	0.603138	0.312982	47.082664
1409.510524	0.960062	0.084785	0.963798	91.878307	9.157292	0.005697	54.839822	-2105.160178	54.839822	4.184431	1.590489	2.830000	0.587482	0.309043	47.800010
1429.813862	0.972804	0.111527	0.979176	91.521579	9.272240	0.005457	24.001668	-2135.998332	24.001668	4.228737	1.503827	2.830000	0.572340	0.305212	48.499821
1450.409659	1.007477	0.117241	1.014276	91.026697	9.388448	0.005225	-7.035174	-2167.035174	-7.035174	4.125370	1.377859	2.830000	0.557390	0.301434	49.201430
1471.302129	1.032194	0.093032	1.036378	90.504906	9.509103	0.004995	-37.572175	-2197.572175	-37.572175	4.007939	1.255401	2.830000	0.542503	0.297610	49.900021
1492.495545	1.028975	0.066862	1.031145	90.078072	9.634325	0.004771	-68.057401	-2228.057401	-68.057401	4.003082	1.169407	2.830000	0.527881	0.293741	50.578865
1513.994242	1.019018	0.059474	1.020752	89.716296	9.761994	0.004560	-99.251954	-2259.251954	-99.251954	4.054878	1.105654	2.830000	0.513694	0.289900	51.234202
1535.802619	1.021039	0.054827	1.022510	89.318887	9.891236	0.004360	-131.069474	-2291.069474	-131.069474	4.033457	1.036847	2.830000	0.499883	0.286112	51.875602
1557.925134	1.019440	0.036185	1.020082	88.901375	10.023340	0.004167	-162.888686	-2322.888686	-162.888686	3.960472	0.968049	2.830000	0.486334	0.282341	52.507403
1580.366314	0.996028	0.021848	0.996267	88.569121	10.158913	0.003981	165.159615	-2354.840385	165.159615	3.970395	0.921828	2.830000	0.473104	0.278573	53.122213
1603.130749	0.970119	0.034284	0.970725	88.315318	10.296512	0.003806	132.237800	-2387.762200	132.237800	4.067160	0.893668	2.830000	0.460309	0.274850	53.715929
1626.223094	0.968391	0.057677	0.970107	88.000750	10.434946	0.003642	98.213520	-2421.786480	98.213520	4.095189	0.854246	2.830000	0.447906	0.271204	54.296924
1649.648074	0.980577	0.063148	0.982608	87.587869	10.575453	0.003484	63.986887	-2456.013113	63.986887	4.016049	0.798445	2.830000	0.435749	0.267601	54.873039
1673.410480	0.977127	0.058162	0.978857	87.210486	10.719341	0.003331	29.809182	-2490.190818	29.809182	3.997816	0.752547	2.830000	0.423847	0.264009	55.438573
1697.515172	0.966634	0.073549	0.969428	86.905017	10.865551	0.003187	-5.264666	-2525.264666	-5.264666	4.093171	0.721065	2.830000	0.412308	0.260456	55.987617
1721.967081	0.984008	0.099833	0.989059	86.507012	11.012881	0.003051	-41.510417	-2561.510417	-41.510417	4.111693	0.676308	2.830000	0.401098	0.256972	56.527097
1746.771208	1.023348	0.094810	1.027731	85.961733	11.162743	0.002918	-77.676032	-2597.676032	-77.676032	3.977285	0.613350	2.830000	0.390085	0.253522	57.064328
1771.932627	1.035016	0.057728	1.036624	85.470489	11.316643	0.002789	-113.246455	-2633.246455	-113.246455	3.905165	0.563345	2.830000	0.379288	0.250074	57.592519
1797.456484	1.013768	0.040440	1.014574	85.136510	11.473583	0.002666	-149.448798	-2669.448798	-149.448798	3.990290	0.536452	2.830000	0.368820	0.246654	58.104435
1823.348001	1.006756	0.048107	1.007905	84.798710	11.632201	0.002550	173.003178	-2706.996822	173.003178	4.041645	0.510341	2.830000	0.358678	0.243290	58.604158
1849.612473	1.015425	0.039380	1.016188	84.369042	11.793178	0.002439	135.115344	-2744.884656	135.115344	3.963529	0.475391	2.830000	0.348776	0.239969	59.097645
1876.255272	0.999813	0.019292	1.000000	84.008170	11.957438	0.002332	97.288493	-2782.711507	97.288493	3.950260	0.449942	2.830000	0.339121	0.236673	59.581356
1903.281848	0.971370	0.028612	0.971791	83.758991	12.124137	0.002230	58.376831	-2821.623169	58.376831	4.052900	0.436901	2.830000	0.329769	0.233419	60.051897
1930.697729	0.969097	0.053828	0.970591	83.440498	12.292565	0.002134	18.146764	-2861.853236	18.146764	4.073587	0.417504	2.830000	0.320688	0.230220	60.513869
1958.508523	0.980515	0.061824	0.982462	83.029873	12.463582	0.002042	-22.313514	-2902.313514	-22.313514	4.012841	0.390637	2.830000	0.311823	0.227062	60.970234
1986.719919	0.982725	0.066957	0.985004	82.650324	12.637502	0.001954	-63.090108	-2943.090108	-63.090108	4.030546	0.368137	2.830000	0.303192	0.223937	61.418000
2015.337686	0.997179	0.079275	1.000325	82.231376	12.813815	0.001870	-104.699888	-2984.699888	-104.699888	4.027185	0.343802	2.830000	0.294797	0.220855	61.857899
2044.367679	1.022567	0.067440	1.024788	81.731533	12.993036	0.001789	-146.285976	-3026.285976	-146.285976	3.929272	0.315185	2.830000	0.286604	0.217809	62.292091
2073.815835	1.019714	0.041817	1.020572	81.322754	13.175560	0.001711	172.222438	-3067.777562	172.222438	3.924617	0.295083	2.830000	0.278629	0.214792	62.717637
2103.688178	1.007986	0.040755	1.008810	80.988294	13.360677	0.001637	129.623622	-3110.376378	129.623622	3.987792	0.281014	2.830000	0.270892	0.211816	63.133694
2133.990819	1.014967	0.035080	1.015573	80.572643	13.548389	0.001566	86.336399	-3153.663601	86.336399	3.930601	0.262668	2.830000	0.263361	0.208881	63.543479
2164.729954	0.999440	0.013303	0.999528	80.217108	13.739348	0.001498	43.089498	-3196.910502	43.089498	3.915472	0.248953	2.830000	0.256028	0.205978	63.945936
2195.911873	0.967666	0.027757	0.968064	79.993525	13.933006	0.001433	-1.561271	-3241.561271	-1.561271	4.044445	0.243212	2.830000	0.248921	0.203115	64.339011
2227.542952	0.974998	0.058528	0.976753	79.636903	14.128944	0.001372	-47.816321	-3287.816321	-47.816321	4.042428	0.230436	2.830000	0.242011	0.200298	64.726189
2259.629662	0.993558	0.056395	0.995157	79.178319	14.328050	0.001313	-93.952160	-3333.952160	-93.952160	3.962328	0.213286	2.830000	0.235269	0.197515	65.108608
2292.178566	0.990494	0.056771	0.992120	78.813123	14.530324	0.001256	-140.620930	-3380.620930	-140.620930	4.015840	0.201701	2.830000	0.228717	0.194765	65.483576
2325.196322	1.006963	0.066882	1.009182	78.380393	14.735373	0.001202	171.600347	-3428.399653	171.600347	3.994543	0.187805	2.830000	0.222345	0.192055	65.852510
2358.689683	1.024759	0.045765	1.025781	77.901720	14.943733	0.001150	124.003619	-3475.996381	124.003619	3.915796	0.173036	2.830000	0.216137	0.189377	66.216078
2392.665500	1.012673	0.028230	1.013066	77.547050	15.155355	0.001101	75.940276	-3524.059724	75.940276	3.953527	0.164044	2.830000	0.210107	0.186733	66.572516
2427.130723	1.005408	0.024434	1.005705	77.193146	15.369966	0.001053	26.840551	-3573.159449	26.840551	3.944915	0.155544	2.830000	0.204247	0.184125	66.922759
2462.092401	0.988889	0.017833	0.989050	76.872767	15.587820	0.001008	-22.724593	-3622.724593	-22.724593	3.952500	0.148630	2.830000	0.198548	0.181552	67.267038
2497.557686	0.973972	0.038365	0.974728	76.589364	15.808695	0.000965	-73.709049	-3673.709049	-73.709049	4.021760	0.143233	2.830000	0.193014	0.179015	67.605068
2533.533832	0.989584	0.051360	0.990916	76.164458	16.032701	0.000924	-125.474992	-3725.474992	-125.474992	3.957896	0.133612	2.830000	0.187627	0.176514	67.938455
2570.028197	0.990734	0.047632	0.991879	75.777483	16.260202	0.000884	-177.370652	-3777.370652	-177.370652	3.970577	0.125734	2.830000	0.182386	0.174045	68.266376
2607.048246	1.001421	0.062512	1.003370	75.373252	16.490901	0.000846	129.378237	-3830.621763	129.378237	3.990520	0.117850	2.830000	0.177293	0.171610	68.588827
2644.601552	1.027565	0.042059	1.028426	74.864444	16.725131	0.000810	76.183304	-3883.816696	76.183304	3.887127	0.107838	2.830000	0.172333	0.169206	68.906807
2682.695795	1.007872	0.018326	1.008039	74.536640	16.962989	0.000775	22.627992	-3937.372008	22.627992	3.949509	0.102874	2.830000	0.167515	0.166834	69.218865
2721.338768	0.998454	0.026239	0.998798	74.209785	17.204134	0.000742	-32.672065	-3992.672065	-32.672065	3.969889	0.098159	2.830000	0.162834	0.164495	69.525649
2760.538375	0.991183	0.019990	0.991384	73.855031	17.448866	0.000710	-88.405319	-4048.405319	-88.405319	3.951577	0.093061	2.830000	0.158281	0.162188	69.827737
2800.302634	0.977456	0.036770	0.978147	73.558906	17.697099	0.000680	-145.498492	-4105.498492	-145.498492	4.013602	0.089427	2.830000	0.153857	0.159913	70.124655
2840.639679	0.991201	0.049274	0.992425	73.138927	17.948896	0.000651	156.534577	-4163.465423	156.534577	3.963888	0.083520	2.830000	0.149553	0.157670	70.417300
2881.557759	1.000002	0.051071	1.001305	72.727058	18.204444	0.000623	98.158792	-4221.841208	98.158792	3.968821	0.078150	2.830000	0.145369	0.155457	70.705334
2923.065245	1.019612	0.042540	1.020499	72.259755	18.463742	0.000596	39.222977	-4280.777023	39.222977	3.905598	0.072199	2.830000	0.141298	0.153273	70.989001
2965.170628	1.009206	0.018934	1.009384	71.899177	18.726947	0.000571	-19.895426	-4339.895426	-19.895426	3.925742	0.068361	2.830000	0.137342	0.151119	71.267966
3007.882518	1.000102	0.024840	1.000411	71.568324	18.993885	0.000547	-80.676303	-4400.676303	-80.676303	3.949889	0.065171	2.830000	0.133498	0.148995	71.542354
3051.209653	0.991569	0.015278	0.991687	71.216408	19.264761	0.000523	-141.937487	-4461.937487	-141.937487	3.934107	0.061829	2.830000	0.129760	0.146900	71.812567
3095.160895	0.976128	0.038960	0.976905	70.934614	19.539496	0.000501	154.989290	-4525.010710	154.989290	4.018818	0.059614	2.830000	0.126128	0.144835	72.078303
3139.745234	1.000591	0.047623	1.001723	70.463061	19.818205	0.000480	91.104546	-4588.895454	91.104546	3.937841	0.055021	2.830000	0.122594	0.142798	72.340356
3184.971790	1.004040	0.040701	1.004864	70.065819	20.101060	0.000459	26.871305	-4653.128695	26.871305	3.963193	0.051659	2.830000	0.119159	0.140789	72.598238
3230.849813	1.016603	0.031796	1.017100	69.628630	20.388021	0.000440	-38.274522	-4718.274522	-38.274522	3.914327	0.048059	2.830000	0.115819	0.138807	72.852194
3277.388687	1.003961	0.016169	1.004091	69.288835	20.679210	0.000421	-103.946589	-4783.946589	-103.946589	3.941612	0.045724	2.830000	0.112573	0.136852	73.102085
3324.597932	0.994027	0.017003	0.994172	68.956240	20.974587	0.000403	-170.965839	-4850.965839	-170.965839	3.936027	0.043574	2.830000	0.109418	0.134925	73.348087
3372.487204	0.979700	0.030460	0.980174	68.656838	21.274235	0.000386	120.783333	-4919.216667	120.783333	3.989452	0.041844	2.830000	0.106352	0.133025	73.590249
3421.066299	0.999023	0.043447	0.999967	68.211161	21.578200	0.000370	51.366866	-4988.633134	51.366866	3.929504	0.038852	2.830000	0.103370	0.131151	73.828908
3470.345152	1.001150	0.036973	1.001832	67.820890	21.886644	0.000354	-18.398540	-5058.398540	-18.398540	3.957676	0.036538	2.830000	0.100471	0.129303	74.063884
3520.333844	1.018593	0.030674	1.019055	67.366540	22.199551	0.000339	-89.317034	-5129.317034	-89.317034	3.900878	0.033858	2.830000	0.097652	0.127480	74.295346
3571.042600	0.999417	0.010095	0.999468	67.051041	22.517061	0.000324	-160.682665	-5200.682665	-160.682665	3.950028	0.032395	2.830000	0.094913	0.125682	74.523157
3622.481792	0.991691	0.021677	0.991928	66.721138	22.839112	0.000311	125.926066	-5274.073934	125.926066	3.950855	0.030891	2.830000	0.092251	0.123910	74.747487
3674.661941	0.985344	0.030771	0.985825	66.382195	23.165839	0.000297	51.559917	-5348.440083	51.559917	3.977863	0.029397	2.830000	0.089663	0.122163	74.968439
3727.593720	1.000379	0.039092	1.001142	65.949913	23.497293	0.000285	-23.912454	-5423.912454	-23.912454	3.935376	0.027380	2.830000	0.087147	0.120439	75.186138
3781.287957	1.009866	0.034701	1.010462	65.531060	23.833579	0.000273	-99.998550	-5499.998550	-99.998550	3.931263	0.025581	2.830000	0.084701	0.118740	75.400554
3835.755635	1.009944	0.011816	1.010013	65.135379	24.174772	0.000261	-176.571317	-5576.571317	-176.571317	3.904184	0.024028	2.830000	0.082323	0.117064	75.611737
3891.007893	0.992749	0.019958	0.992950	64.841347	24.520881	0.000250	104.987943	-5655.012057	104.987943	3.955502	0.023103	2.830000	0.080013	0.115412	75.819650
3947.056035	0.987605	0.020334	0.987815	64.489191	24.872008	0.000239	25.510201	-5734.489799	25.510201	3.954751	0.021919	2.830000	0.077766	0.113783	76.024495
4003.911523	0.996630	0.041902	0.997511	64.093303	25.228191	0.000229	-55.849420	-5815.849420	-55.849420	3.952858	0.020587	2.830000	0.075583	0.112176	76.226286
4061.585988	1.008712	0.027678	1.009092	63.656347	25.589576	0.000220	-137.393492	-5897.393492	-137.393492	3.932247	0.019155	2.830000	0.073460	0.110592	76.425108
4120.091227	1.009548	0.016633	1.009685	63.269111	25.956197	0.000210	139.879226	-5980.120774	139.879226	3.914177	0.018027	2.830000	0.071397	0.109030	76.620931
4179.439206	0.993870	0.015148	0.993985	62.960005	26.328125	0.000201	55.859070	-6064.140930	55.859070	3.947775	0.017274	2.830000	0.069392	0.107490	76.813793
4239.642065	0.986295	0.022773	0.986558	62.624847	26.705426	0.000193	-29.611577	-6149.611577	-29.611577	3.958319	0.016453	2.830000	0.067443	0.105971	77.003796
4300.712118	1.003327	0.037575	1.004030	62.188164	27.088175	0.000185	-116.617106	-6236.617106	-116.617106	3.922296	0.015309	2.830000	0.065548	0.104474	77.191019
4362.661857	1.005231	0.024516	1.005530	61.796353	27.476495	0.000177	155.958879	-6324.041121	155.958879	3.942200	0.014393	2.830000	0.063707	0.102997	77.375457
4425.503952	1.008415	0.010638	1.008472	61.397492	27.870434	0.000169	67.222073	-6412.777927	67.222073	3.907577	0.013509	2.830000	0.061917	0.101541	77.557164
4489.251258	0.988648	0.018547	0.988822	61.114331	28.270066	0.000162	-23.318164	-6503.318164	-23.318164	3.962572	0.013023	2.830000	0.060177	0.100106	77.736134
4553.916814	0.991629	0.028844	0.992048	60.734998	28.675471	0.000155	-115.327653	-6595.327653	-115.327653	3.956424	0.012278	2.830000	0.058486	0.098691	77.912494
4619.513847	1.006691	0.028060	1.007082	60.295584	29.086747	0.000149	151.681764	-6688.318236	151.681764	3.918845	0.011418	2.830000	0.056842	0.097295	78.086273
4686.055775	1.010828	0.018140	1.010991	59.896918	29.503981	0.000143	57.723015	-6782.276985	57.723015	3.907929	0.010718	2.830000	0.055244	0.095919	78.257479
4753.556208	0.990033	0.011556	0.990100	59.606712	29.927253	0.000137	-37.552561	-6877.552561	-37.552561	3.959801	0.010315	2.830000	0.053691	0.094563	78.426135
4822.028953	0.993604	0.021701	0.993841	59.225024	30.356632	0.000131	-134.856563	-6974.856563	-134.856563	3.936020	0.009720	2.830000	0.052182	0.093225	78.592331
4891.488015	1.003395	0.033258	1.003946	58.816235	30.792218	0.000125	126.321878	-7073.678122	126.321878	3.933027	0.009103	2.830000	0.050715	0.091906	78.756091
4961.947603	1.007576	0.016089	1.007705	58.413346	31.234119	0.000120	26.915279	-7173.084721	26.915279	3.927066	0.008537	2.830000	0.049289	0.090606	78.917452
5033.422128	0.995300	0.010085	0.995351	58.087591	31.682405	0.000115	-74.102999	-7274.102999	-74.102999	3.940085	0.008149	2.830000	0.047903	0.089324	79.076429
5105.926210	0.992357	0.020525	0.992569	57.733915	32.137162	0.000110	-177.015790	-7377.015790	-177.015790	3.936178	0.007729	2.830000	0.046556	0.088060	79.233081
5179.474679	1.005233	0.031713	1.005733	57.311284	32.598491	0.000105	78.526500	-7481.473500	78.526500	3.921347	0.007215	2.830000	0.045247	0.086814	79.387453
5254.082580	1.003943	0.014992	1.004055	56.932805	33.066501	0.000101	-26.635244	-7586.635244	-26.635244	3.937454	0.006804	2.830000	0.043974	0.085585	79.539564
5329.765172	0.995479	0.008006	0.995511	56.590496	33.541271	0.000097	-133.620596	-7693.620596	-133.620596	3.938018	0.006470	2.830000	0.042737	0.084374	79.689447
5406.537936	0.993453	0.024302	0.993751	56.236250	34.022891	0.000093	117.161707	-7802.838293	117.161707	3.941640	0.006136	2.830000	0.041535	0.083179	79.837141
5484.416576	1.007573	0.024162	1.007862	55.801633	34.511476	0.000089	6.856895	-7913.143105	6.856895	3.913702	0.005713	2.830000	0.040367	0.082002	79.982695
5563.417021	1.005342	0.013655	1.005435	55.431190	35.007124	0.000085	-104.614884	-8024.614884	-104.614884	3.919799	0.005397	2.830000	0.039231	0.080841	80.126120
5643.555431	0.987919	0.014468	0.988025	55.133204	35.509930	0.000081	142.038842	-8137.961158	142.038842	3.962124	0.005185	2.830000	0.038127	0.079696	80.267448
5724.848197	0.997733	0.022551	0.997988	54.721855	36.019995	0.000078	26.669895	-8253.330105	26.669895	3.938572	0.004853	2.830000	0.037055	0.078567	80.406733
5807.311946	1.009882	0.016645	1.010019	54.292790	36.537431	0.000075	-89.998510	-8369.998510	-89.998510	3.910875	0.004524	2.830000	0.036012	0.077455	80.543994
5890.963548	0.997636	0.008295	0.997671	53.966597	37.062343	0.000071	151.865183	-8488.134817	151.865183	3.928944	0.004318	2.830000	0.034999	0.076358	80.679252
5975.820111	0.995344	0.021266	0.995571	53.610631	37.594830	0.000068	31.457665	-8608.542335	31.457665	3.930411	0.004094	2.830000	0.034014	0.075276	80.812548
6061.898993	1.006807	0.024978	1.007117	53.189514	38.135007	0.000066	-90.452785	-8730.452785	-90.452785	3.918959	0.003823	2.830000	0.033057	0.074210	80.943916
6149.217802	0.999617	0.010064	0.999668	52.838837	38.682990	0.000063	146.410007	-8853.589993	146.410007	3.939066	0.003628	2.830000	0.032126	0.073159	81.073375
6237.794396	0.990663	0.015388	0.990783	52.507215	39.238881	0.000060	20.883111	-8979.116889	20.883111	3.952500	0.003459	2.830000	0.031222	0.072122	81.200956
6327.646895	1.002530	0.023325	1.002801	52.086430	39.802795	0.000058	-106.547464	-9106.547464	-106.547464	3.929463	0.003231	2.830000	0.030343	0.071101	81.326696
6418.793677	1.002235	0.009486	1.002280	51.707054	40.374856	0.000055	124.930335	-9235.069665	124.930335	3.929351	0.003046	2.830000	0.029489	0.070093	81.450614
6511.253386	0.990821	0.010692	0.990878	51.383701	40.955173	0.000053	-5.838816	-9365.838816	-5.838816	3.947933	0.002909	2.830000	0.028659	0.069100	81.572736
6605.044933	1.002484	0.020038	1.002684	50.964679	41.543865	0.000051	-138.877972	-9498.877972	-138.877972	3.925462	0.002718	2.830000	0.027852	0.068121	81.693097
6700.187504	1.005805	0.009437	1.005849	50.571689	42.141057	0.000049	86.747819	-9633.252181	86.747819	3.917481	0.002555	2.830000	0.027068	0.067155	81.811718
6796.700558	0.991746	0.011793	0.991816	50.260309	42.746867	0.000046	-49.798112	-9769.798112	-49.798112	3.943231	0.002447	2.830000	0.026306	0.066204	81.928623
6894.603838	1.001317	0.018587	1.001490	49.848863	43.361420	0.000045	171.535769	-9908.464231	171.535769	3.926348	0.002290	2.830000	0.025565	0.065265	82.043844
6993.917368	1.005213	0.006075	1.005232	49.452560	43.984844	0.000043	31.393226	-10048.606774	31.393226	3.916025	0.002151	2.830000	0.024846	0.064340	82.157403
7094.661463	0.993940	0.013012	0.994025	49.131534	44.617263	0.000041	-111.332873	-10191.332873	-111.332873	3.938073	0.002056	2.830000	0.024146	0.063428	82.269321
7196.856730	1.003220	0.019269	1.003405	48.720946	45.258808	0.000039	103.886473	-10336.113527	103.886473	3.925128	0.001925	2.830000	0.023466	0.062529	82.379629
7300.524071	0.999113	0.006196	0.999132	48.359220	45.909612	0.000037	-42.308720	-10482.308720	-42.308720	3.932517	0.001822	2.830000	0.022805	0.061643	82.488346
7405.684692	0.991910	0.015035	0.992024	48.021545	46.569804	0.000036	168.743064	-10631.256936	168.743064	3.949000	0.001735	2.830000	0.022163	0.060769	82.595497
7512.360102	1.005151	0.014024	1.005249	47.590569	47.239522	0.000034	17.803992	-10782.196008	17.803992	3.924551	0.001616	2.830000	0.021539	0.059907	82.701108
7620.572122	0.996833	0.007898	0.996864	47.250420	47.918904	0.000033	-135.068233	-10935.068233	-135.068233	3.933343	0.001538	2.830000	0.020932	0.059058	82.805198
7730.342884	0.999212	0.021096	0.999435	46.872557	48.608085	0.000032	69.351140	-11090.648860	69.351140	3.928153	0.001451	2.830000	0.020343	0.058221	82.907790
7841.694843	1.005992	0.011143	1.006054	46.466103	49.307210	0.000030	-87.841363	-11247.841363	-87.841363	3.915282	0.001359	2.830000	0.019770	0.057395	83.008909
7954.650775	0.994344	0.013387	0.994434	46.144235	50.016420	0.000029	112.334773	-11407.665227	112.334773	3.936427	0.001299	2.830000	0.019213	0.056581	83.108572
8069.233784	1.004219	0.015497	1.004339	45.729187	50.735860	0.000028	-49.803839	-11569.803839	-49.803839	3.920310	0.001215	2.830000	0.018672	0.055779	83.206805
8185.467307	0.995996	0.005370	0.996011	45.387235	51.465678	0.000027	146.192716	-11733.807284	146.192716	3.937114	0.001155	2.830000	0.018146	0.054988	83.303626
8303.375120	0.996351	0.017524	0.996505	45.017648	52.206022	0.000025	-20.888171	-11900.888171	-20.888171	3.941715	0.001092	2.830000	0.017635	0.054208	83.399057
8422.981339	1.003350	0.007755	1.003380	44.610384	52.957046	0.000024	170.192525	-12069.807475	170.192525	3.922903	0.001023	2.830000	0.017138	0.053440	83.493119
8544.310429	0.995205	0.012457	0.995283	44.274470	53.718900	0.000023	-1.463088	-12241.463088	-1.463088	3.931386	0.000974	2.830000	0.016655	0.052682	83.585830
8667.387209	1.005407	0.009864	1.005455	43.856252	54.491743	0.000022	-175.399367	-12415.399367	-175.399367	3.917376	0.000910	2.830000	0.016186	0.051934	83.677212
8792.236851	0.993920	0.007648	0.993950	43.531968	55.275731	0.000021	8.128714	-12591.871286	8.128714	3.941978	0.000869	2.830000	0.015730	0.051198	83.767283
8918.884894	1.003880	0.015363	1.003997	43.118690	56.071025	0.000021	-171.210277	-12771.210277	-171.210277	3.919097	0.000813	2.830000	0.015287	0.050472	83.856064
9047.357242	0.998680	0.004131	0.998689	42.763774	56.877789	0.000020	7.526435	-12592.473565	7.526435	3.924372	0.000771	2.830000	0.014856	0.049756	83.943571
9177.680175	0.999196	0.014811	0.999306	42.392598	57.696186	0.000019	-177.040330	-12417.040330	-177.040330	3.933224	0.000729	2.830000	0.014438	0.049050	84.029825
9309.880348	1.000583	0.005468	1.000598	42.010113	58.526385	0.000018	-3.727383	-12243.727383	-3.727383	3.925521	0.000686	2.830000	0.014031	0.048354	84.114843
9443.984802	0.997924	0.013848	0.998020	41.651696	59.368555	0.000017	166.478139	-12073.521861	166.478139	3.928990	0.000650	2.830000	0.013636	0.047668	84.198643
9580.020968	1.000601	0.005707	1.000618	41.264156	60.222868	0.000017	-25.600071	-11905.600071	-25.600071	3.930857	0.000612	2.830000	0.013252	0.046992	84.281244
9718.016671	0.996728	0.014761	0.996837	40.911119	61.089499	0.000016	139.014655	-11740.985345	139.014655	3.932895	0.000581	2.830000	0.012878	0.046325	84.362663
9858.000137	1.001836	0.006239	1.001856	40.513079	61.968626	0.000015	-58.626632	-11578.626632	-58.626632	3.925406	0.000545	2.830000	0.012515	0.045668	84.442916
10000.000000	0.996716	0.015396	0.996835	40.165324	62.860427	0.000015	100.405880	-11419.594120	100.405880	3.933065	0.000518	2.830000	0.012163	0.045020	84.522021
10144.045304	1.003637	0.006027	1.003655	39.759314	63.765087	0.000014	-103.016250	-11263.016250	-103.016250	3.919268	0.000485	2.830000	0.011820	0.044382	84.599995
10290.165513	0.997900	0.014282	0.998003	39.413854	64.682789	0.000013	50.220768	-11109.779232	50.220768	3.927715	0.000461	2.830000	0.011487	0.043752	84.676853
10438.390514	1.002794	0.003851	1.002801	39.016281	65.613722	0.000013	-159.001638	-10959.001638	-159.001638	3.920224	0.000433	2.830000	0.011163	0.043131	84.752612
10588.750628	0.997747	0.013749	0.997841	38.668410	66.558075	0.000012	-11.862593	-10811.862593	-11.862593	3.931671	0.000411	2.830000	0.010849	0.042519	84.827288
10741.276608	0.999518	0.004347	0.999527	38.284787	67.516042	0.000012	132.825909	-10667.174091	132.825909	3.928850	0.000387	2.830000	0.010543	0.041916	84.900897
10895.999653	1.000862	0.014969	1.000974	37.909290	68.487819	0.000011	-86.179118	-10526.179118	-86.179118	3.923902	0.000366	2.830000	0.010246	0.041321	84.973454
11052.951411	0.998496	0.004906	0.998508	37.543599	69.473606	0.000011	52.223365	-10387.776635	52.223365	3.928948	0.000346	2.830000	0.009957	0.040735	85.044975
11212.163986	1.003302	0.010857	1.003361	37.151737	70.473602	0.000010	-172.964109	-10252.964109	-172.964109	3.917977	0.000325	2.830000	0.009677	0.040157	85.115474
11373.669943	0.995333	0.007557	0.995362	36.812399	71.488013	0.000010	-41.155825	-10121.155825	-41.155825	3.936661	0.000309	2.830000	0.009404	0.039587	85.184965
11537.502317	1.003780	0.009293	1.003823	36.403394	72.517047	0.000009	87.194951	-9992.805049	87.194951	3.920715	0.000290	2.830000	0.009139	0.039025	85.253465
11703.694619	0.997328	0.009417	0.997373	36.058468	73.560913	0.000009	-147.664807	-9867.664807	-147.664807	3.927611	0.000275	2.830000	0.008881	0.038472	85.320986
11872.280844	1.001747	0.005035	1.001759	35.665129	74.619826	0.000009	-25.868538	-9745.868538	-25.868538	3.923332	0.000259	2.830000	0.008631	0.037926	85.387544
12043.295474	0.999660	0.013506	0.999751	35.303589	75.694001	0.000008	92.205124	-9627.794876	92.205124	3.928251	0.000245	2.830000	0.008388	0.037387	85.453151
12216.773490	0.997419	0.004001	0.997427	34.937832	76.783660	0.000008	-152.712124	-9512.712124	-152.712124	3.930548	0.000232	2.830000	0.008151	0.036857	85.517822
12392.750375	1.003547	0.008120	1.003580	34.539621	77.889024	0.000008	-41.579723	-9401.579723	-41.579723	3.919326	0.000218	2.830000	0.007922	0.036334	85.581571
12571.262124	0.998044	0.010865	0.998104	34.191286	79.010320	0.000007	66.083330	-9293.916670	66.083330	3.926277	0.000207	2.830000	0.007698	0.035818	85.644409
12752.345251	1.000125	0.003902	1.000132	33.807517	80.147777	0.000007	170.312382	-9189.687618	170.312382	3.925634	0.000195	2.830000	0.007481	0.035310	85.706352
12936.036796	1.002408	0.011688	1.002476	33.426803	81.301627	0.000007	-89.498633	-9089.498633	-89.498633	3.922447	0.000184	2.830000	0.007270	0.034809	85.767411
13122.374331	0.995719	0.007627	0.995748	33.081996	82.472107	0.000006	7.257348	-8992.742652	7.257348	3.935530	0.000174	2.830000	0.007066	0.034315	85.827599
13311.395971	1.000730	0.004716	1.000741	32.686617	83.659457	0.000006	100.196111	-8899.803889	100.196111	3.925728	0.000164	2.830000	0.006866	0.033828	85.886929
13503.140379	1.001733	0.009341	1.001776	32.310604	84.863918	0.000006	-170.919788	-8810.919788	-170.919788	3.924768	0.000155	2.830000	0.006673	0.033348	85.945412
13697.646775	0.995959	0.008354	0.995994	31.962596	86.085738	0.000006	-85.786597	-8725.786597	-85.786597	3.933778	0.000147	2.830000	0.006485	0.032874	86.003062
13894.954944	0.999930	0.002720	0.999934	31.571059	87.325166	0.000005	-4.454893	-8644.454893	-4.454893	3.927521	0.000138	2.830000	0.006302	0.032408	86.059891
14095.105244	1.002967	0.009124	1.003009	31.186686	88.582456	0.000005	72.470938	-8567.529062	72.470938	3.920957	0.000130	2.830000	0.006124	0.031948	86.115909
14298.138616	0.996330	0.009307	0.996374	30.842691	89.857864	0.000005	145.572693	-8494.427307	145.572693	3.935454	0.000124	2.830000	0.005952	0.031494	86.171129
14504.096588	0.998217	0.004030	0.998225	30.460419	91.151653	0.000005	-145.370444	-8425.370444	-145.370444	3.928358	0.000117	2.830000	0.005784	0.031047	86.225562
14713.021288	1.002791	0.006433	1.002812	30.068369	92.464086	0.000005	-80.669376	-8360.669376	-80.669376	3.921181	0.000110	2.830000	0.005621	0.030606	86.279219
14924.955451	1.001098	0.009643	1.001145	29.703570	93.795432	0.000004	-20.290092	-8300.290092	-20.290092	3.923579	0.000104	2.830000	0.005462	0.030172	86.332112
15139.942425	0.997954	0.007331	0.997981	29.343922	95.145964	0.000004	35.994046	-8244.005954	35.994046	3.926194	0.000098	2.830000	0.005308	0.029744	86.384252
15358.026185	0.998555	0.003757	0.998562	28.967690	96.515957	0.000004	87.879466	-8192.120534	87.879466	3.927687	0.000093	2.830000	0.005159	0.029322	86.435648
15579.251340	1.001514	0.004803	1.001526	28.582311	97.905691	0.000004	135.246509	-8144.753491	135.246509	3.925468	0.000087	2.830000	0.005013	0.028905	86.486313
15803.663140	1.002275	0.008295	1.002309	28.206961	99.315452	0.000004	177.993258	-8102.006742	177.993258	3.921021	0.000082	2.830000	0.004872	0.028495	86.536256
16031.307485	0.999350	0.008340	0.999385	27.846847	100.745527	0.000004	-143.671618	-8063.671618	-143.671618	3.924488	0.000078	2.830000	0.004735	0.028091	86.585488
16262.230941	0.996965	0.006047	0.996983	27.483962	102.196209	0.000003	-109.948821	-8029.948821	-109.948821	3.930773	0.000074	2.830000	0.004601	0.027692	86.634018
16496.480741	0.999310	0.004061	0.999318	27.100564	103.667794	0.000003	-80.898955	-8000.898955	-80.898955	3.926044	0.000070	2.830000	0.004472	0.027299	86.681858
16734.104799	1.001497	0.003768	1.001504	26.718242	105.160584	0.000003	-56.694285	-7976.694285	-56.694285	3.923275	0.000066	2.830000	0.004345	0.026911	86.729016
16975.151720	1.002193	0.006847	1.002217	26.343076	106.674884	0.000003	-37.401290	-7957.401290	-37.401290	3.923351	0.000062	2.830000	0.004223	0.026529	86.775504
17219.670809	1.000775	0.007674	1.000804	25.976592	108.211004	0.000003	-22.945954	-7942.945954	-22.945954	3.924136	0.000058	2.830000	0.004104	0.026153	86.821329
17467.712080	0.998467	0.008213	0.998501	25.613923	109.769258	0.000003	-13.474267	-7933.474267	-13.474267	3.929042	0.000055	2.830000	0.003988	0.025781	86.866502
17719.326270	0.997033	0.005793	0.997050	25.246947	111.349964	0.000003	-8.932655	-7928.932655	-8.932655	3.931031	0.000052	2.830000	0.003876	0.025415	86.911032
17974.564843	0.997407	0.004458	0.997417	24.872296	112.953446	0.000003	-9.584110	-7929.584110	-9.584110	3.928888	0.000049	2.830000	0.003767	0.025055	86.954929
18233.480009	0.997630	0.002959	0.997634	24.498266	114.580033	0.000002	-15.388043	-7935.388043	-15.388043	3.931292	0.000047	2.830000	0.003660	0.024699	86.998200
18496.124725	0.999289	0.002135	0.999292	24.118131	116.230055	0.000002	-26.500235	-7946.500235	-26.500235	3.926161	0.000044	2.830000	0.003557	0.024348	87.040856
18762.552716	1.000566	0.003027	1.000571	23.740022	117.903852	0.000002	-43.010971	-7963.010971	-43.010971	3.924313	0.000041	2.830000	0.003457	0.024003	87.082905
19032.818477	1.001052	0.003861	1.001060	23.365325	119.601766	0.000002	-64.912616	-7984.912616	-64.912616	3.924631	0.000039	2.830000	0.003359	0.023662	87.124355
19306.977289	1.001840	0.004039	1.001849	22.989192	121.324143	0.000002	-92.327895	-8012.327895	-92.327895	3.922262	0.000037	2.830000	0.003265	0.023326	87.165216
19585.085230	1.002709	0.003802	1.002716	22.612639	123.071337	0.000002	-125.292213	-8045.292213	-125.292213	3.919606	0.000035	2.830000	0.003173	0.022995	87.205495
19867.199185	1.002748	0.003506	1.002754	22.239672	124.843704	0.000002	-163.902992	-8083.902992	-163.902992	3.918766	0.000033	2.830000	0.003083	0.022668	87.245202
20000.000000	0.997287	0.004737	0.997298	22.089949	125.678020	0.000002	8.409404	-7911.590596	8.409404	3.930894	0.000032	2.830000	0.003042	0.022518	87.263505
