Freq (hertz)	Ra (norm)	Xa (norm)	Za (norm)	SPL (dB)	Ze (ohms)	Xd (mm) 	WPhase (deg)	UPhase (deg)	CPhase (deg)	Delay (msec)	Efficiency (%)	Ein (volts)	Pin (watts)	Iin (amps)	ZePhase (deg)

10.000000	0.000044	0.066469	0.066469	57.597827	6.196819	0.794362	165.438295	165.438295	165.438295	4.056361	0.000278	2.830000	1.256358	0.456686	13.566974
10.144045	0.000045	0.067435	0.067435	57.848724	6.202699	0.794150	165.227934	165.227934	165.227934	4.056867	0.000295	2.830000	1.254129	0.456253	13.762005
10.290166	0.000047	0.068415	0.068415	58.099692	6.208759	0.793932	165.014515	165.014515	165.014515	4.057387	0.000313	2.830000	1.251838	0.455808	13.959826
10.438391	0.000048	0.069410	0.069410	58.350733	6.215006	0.793708	164.797995	164.797995	164.797995	4.057924	0.000332	2.830000	1.249483	0.455350	14.160479
10.588751	0.000050	0.070419	0.070419	58.601851	6.221446	0.793477	164.578326	164.578326	164.578326	4.058476	0.000352	2.830000	1.247063	0.454878	14.364001
10.741277	0.000051	0.071444	0.071444	58.853046	6.228085	0.793240	164.355462	164.355462	164.355462	4.059045	0.000374	2.830000	1.244576	0.454393	14.570434
10.896000	0.000053	0.072483	0.072483	59.104322	6.234930	0.792996	164.129356	164.129356	164.129356	4.059632	0.000397	2.830000	1.242021	0.453894	14.779818
11.052951	0.000054	0.073538	0.073538	59.355681	6.241987	0.792744	163.899959	163.899959	163.899959	4.060236	0.000422	2.830000	1.239395	0.453381	14.992196
11.212164	0.000056	0.074609	0.074609	59.607125	6.249263	0.792486	163.667223	163.667223	163.667223	4.060858	0.000448	2.830000	1.236696	0.452853	15.207608
11.373670	0.000057	0.075696	0.075696	59.858657	6.256766	0.792220	163.431097	163.431097	163.431097	4.061500	0.000476	2.830000	1.233924	0.452310	15.426098
11.537502	0.000059	0.076799	0.076799	60.110279	6.264504	0.791946	163.191532	163.191532	163.191532	4.062160	0.000505	2.830000	1.231075	0.451752	15.647708
11.703695	0.000061	0.077918	0.077918	60.361993	6.272483	0.791665	162.948476	162.948476	162.948476	4.062841	0.000537	2.830000	1.228149	0.451177	15.872482
11.872281	0.000063	0.079054	0.079054	60.613804	6.280713	0.791375	162.701877	162.701877	162.701877	4.063543	0.000570	2.830000	1.225142	0.450586	16.100465
12.043295	0.000065	0.080207	0.080207	60.865714	6.289201	0.791077	162.451681	162.451681	162.451681	4.064266	0.000606	2.830000	1.222053	0.449978	16.331701
12.216773	0.000067	0.081377	0.081377	61.117724	6.297957	0.790771	162.197836	162.197836	162.197836	4.065011	0.000643	2.830000	1.218880	0.449352	16.566235
12.392750	0.000069	0.082565	0.082565	61.369840	6.306989	0.790455	161.940287	161.940287	161.940287	4.065778	0.000684	2.830000	1.215621	0.448709	16.804114
12.571262	0.000071	0.083770	0.083770	61.622062	6.316307	0.790131	161.678977	161.678977	161.678977	4.066570	0.000727	2.830000	1.212274	0.448047	17.045383
12.752345	0.000073	0.084994	0.084994	61.874396	6.325921	0.789797	161.413851	161.413851	161.413851	4.067385	0.000772	2.830000	1.208835	0.447366	17.290090
12.936037	0.000075	0.086236	0.086236	62.126844	6.335840	0.789453	161.144852	161.144852	161.144852	4.068226	0.000821	2.830000	1.205304	0.446665	17.538283
13.122374	0.000078	0.087497	0.087497	62.379409	6.346076	0.789100	160.871920	160.871920	160.871920	4.069092	0.000873	2.830000	1.201677	0.445945	17.790010
13.311396	0.000080	0.088776	0.088776	62.632095	6.356640	0.788736	160.594997	160.594997	160.594997	4.069985	0.000928	2.830000	1.197953	0.445204	18.045319
13.503140	0.000083	0.090075	0.090075	62.884906	6.367542	0.788362	160.314023	160.314023	160.314023	4.070906	0.000987	2.830000	1.194129	0.444442	18.304260
13.697647	0.000085	0.091394	0.091394	63.137845	6.378795	0.787977	160.028935	160.028935	160.028935	4.071855	0.001049	2.830000	1.190203	0.443657	18.566882
13.894955	0.000088	0.092732	0.092732	63.390915	6.390411	0.787581	159.739673	159.739673	159.739673	4.072834	0.001116	2.830000	1.186171	0.442851	18.833238
14.095105	0.000090	0.094091	0.094091	63.644122	6.402403	0.787173	159.446172	159.446172	159.446172	4.073843	0.001187	2.830000	1.182032	0.442022	19.103377
14.298139	0.000093	0.095470	0.095470	63.897469	6.414785	0.786754	159.148369	159.148369	159.148369	4.074883	0.001263	2.830000	1.177783	0.441168	19.377351
14.504097	0.000096	0.096871	0.096871	64.150961	6.427569	0.786323	158.846198	158.846198	158.846198	4.075955	0.001344	2.830000	1.173422	0.440291	19.655213
14.713021	0.000099	0.098292	0.098292	64.404600	6.440772	0.785879	158.539592	158.539592	158.539592	4.077061	0.001430	2.830000	1.168945	0.439388	19.937016
14.924955	0.000102	0.099736	0.099736	64.658393	6.454408	0.785422	158.228484	158.228484	158.228484	4.078202	0.001522	2.830000	1.164351	0.438460	20.222813
15.139942	0.000106	0.101201	0.101201	64.912343	6.468493	0.784953	157.912805	157.912805	157.912805	4.079378	0.001620	2.830000	1.159636	0.437505	20.512658
15.358026	0.000109	0.102689	0.102689	65.166456	6.483043	0.784469	157.592485	157.592485	157.592485	4.080591	0.001725	2.830000	1.154797	0.436523	20.806606
15.579251	0.000112	0.104199	0.104199	65.420735	6.498075	0.783972	157.267453	157.267453	157.267453	4.081843	0.001837	2.830000	1.149832	0.435514	21.104712
15.803663	0.000116	0.105733	0.105733	65.675187	6.513608	0.783461	156.937636	156.937636	156.937636	4.083134	0.001957	2.830000	1.144738	0.434475	21.407033
16.031307	0.000119	0.107290	0.107290	65.929816	6.529661	0.782935	156.602961	156.602961	156.602961	4.084465	0.002084	2.830000	1.139512	0.433407	21.713623
16.262231	0.000123	0.108871	0.108871	66.184627	6.546252	0.782393	156.263352	156.263352	156.263352	4.085839	0.002221	2.830000	1.134151	0.432308	22.024542
16.496481	0.000127	0.110477	0.110477	66.439627	6.563402	0.781836	155.918734	155.918734	155.918734	4.087256	0.002366	2.830000	1.128652	0.431179	22.339845
16.734105	0.000131	0.112107	0.112107	66.694820	6.581133	0.781263	155.569029	155.569029	155.569029	4.088719	0.002522	2.830000	1.123012	0.430017	22.659590
16.975152	0.000135	0.113762	0.113763	66.950214	6.599467	0.780674	155.214157	155.214157	155.214157	4.090228	0.002689	2.830000	1.117229	0.428823	22.983838
17.219671	0.000140	0.115444	0.115444	67.205812	6.618427	0.780068	154.854039	154.854039	154.854039	4.091785	0.002867	2.830000	1.111298	0.427594	23.312645
17.467712	0.000144	0.117151	0.117151	67.461623	6.638039	0.779444	154.488592	154.488592	154.488592	4.093392	0.003058	2.830000	1.105218	0.426331	23.646073
17.719326	0.000149	0.118885	0.118885	67.717651	6.658327	0.778802	154.117734	154.117734	154.117734	4.095051	0.003262	2.830000	1.098984	0.425032	23.984180
17.974565	0.000154	0.120646	0.120646	67.973905	6.679318	0.778142	153.741378	153.741378	153.741378	4.096763	0.003480	2.830000	1.092594	0.423696	24.327029
18.233480	0.000159	0.122435	0.122435	68.230390	6.701041	0.777463	153.359439	153.359439	153.359439	4.098530	0.003714	2.830000	1.086045	0.422322	24.674678
18.496125	0.000164	0.124252	0.124252	68.487114	6.723525	0.776765	152.971828	152.971828	152.971828	4.100355	0.003965	2.830000	1.079333	0.420910	25.027190
18.762553	0.000169	0.126097	0.126097	68.744083	6.746801	0.776046	152.578456	152.578456	152.578456	4.102239	0.004234	2.830000	1.072455	0.419458	25.384626
19.032818	0.000175	0.127972	0.127972	69.001306	6.770902	0.775307	152.179232	152.179232	152.179232	4.104185	0.004522	2.830000	1.065409	0.417965	25.747048
19.306977	0.000181	0.129876	0.129876	69.258790	6.795862	0.774546	151.774062	151.774062	151.774062	4.106194	0.004831	2.830000	1.058191	0.416430	26.114519
19.585085	0.000187	0.131810	0.131810	69.516543	6.821717	0.773764	151.362851	151.362851	151.362851	4.108269	0.005162	2.830000	1.050798	0.414852	26.487101
19.867199	0.000193	0.133775	0.133776	69.774574	6.848505	0.772959	150.945502	150.945502	150.945502	4.110412	0.005518	2.830000	1.043226	0.413229	26.864857
20.153377	0.000199	0.135772	0.135772	70.032889	6.876266	0.772131	150.521918	150.521918	150.521918	4.112626	0.005900	2.830000	1.035473	0.411561	27.247849
20.443677	0.000206	0.137800	0.137801	70.291500	6.905041	0.771280	150.091997	150.091997	150.091997	4.114914	0.006310	2.830000	1.027535	0.409846	27.636142
20.738158	0.000213	0.139861	0.139862	70.550414	6.934875	0.770404	149.655636	149.655636	149.655636	4.117277	0.006751	2.830000	1.019410	0.408082	28.029797
21.036882	0.000220	0.141956	0.141956	70.809640	6.965815	0.769503	149.212731	149.212731	149.212731	4.119719	0.007225	2.830000	1.011094	0.406270	28.428878
21.339908	0.000227	0.144084	0.144084	71.069189	6.997909	0.768576	148.763176	148.763176	148.763176	4.122243	0.007736	2.830000	1.002585	0.404407	28.833448
21.647300	0.000235	0.146246	0.146246	71.329071	7.031210	0.767623	148.306861	148.306861	148.306861	4.124852	0.008285	2.830000	0.993879	0.402491	29.243569
21.959119	0.000243	0.148444	0.148444	71.589294	7.065772	0.766642	147.843675	147.843675	147.843675	4.127549	0.008876	2.830000	0.984974	0.400522	29.659304
22.275430	0.000251	0.150677	0.150677	71.849871	7.101655	0.765633	147.373505	147.373505	147.373505	4.130337	0.009512	2.830000	0.975866	0.398499	30.080716
22.596297	0.000260	0.152947	0.152948	72.110812	7.138918	0.764595	146.896235	146.896235	146.896235	4.133220	0.010199	2.830000	0.966553	0.396419	30.507865
22.921786	0.000269	0.155255	0.155255	72.372128	7.177628	0.763528	146.411747	146.411747	146.411747	4.136201	0.010939	2.830000	0.957033	0.394281	30.940813
23.251963	0.000278	0.157600	0.157600	72.633831	7.217853	0.762430	145.919919	145.919919	145.919919	4.139285	0.011738	2.830000	0.947302	0.392083	31.379619
23.586897	0.000288	0.159985	0.159985	72.895933	7.259667	0.761301	145.420629	145.420629	145.420629	4.142474	0.012600	2.830000	0.937359	0.389825	31.824344
23.926655	0.000298	0.162409	0.162409	73.158447	7.303147	0.760140	144.913750	144.913750	144.913750	4.145774	0.013532	2.830000	0.927200	0.387504	32.275045
24.271307	0.000308	0.164873	0.164874	73.421384	7.348377	0.758945	144.399153	144.399153	144.399153	4.149188	0.014539	2.830000	0.916825	0.385119	32.731779
24.620924	0.000319	0.167379	0.167379	73.684759	7.395444	0.757716	143.876706	143.876706	143.876706	4.152722	0.015629	2.830000	0.906230	0.382668	33.194601
24.975577	0.000331	0.169927	0.169928	73.948585	7.444442	0.756453	143.346274	143.346274	143.346274	4.156379	0.016808	2.830000	0.895415	0.380149	33.663564
25.335338	0.000343	0.172519	0.172519	74.212876	7.495471	0.755153	142.807720	142.807720	142.807720	4.160165	0.018086	2.830000	0.884376	0.377561	34.138721
25.700282	0.000355	0.175154	0.175154	74.477648	7.548638	0.753816	142.260903	142.260903	142.260903	4.164085	0.019471	2.830000	0.873114	0.374902	34.620120
26.070482	0.000368	0.177835	0.177835	74.742914	7.604057	0.752441	141.705677	141.705677	141.705677	4.168144	0.020973	2.830000	0.861626	0.372170	35.107808
26.446016	0.000381	0.180561	0.180561	75.008690	7.661849	0.751026	141.141894	141.141894	141.141894	4.172348	0.022604	2.830000	0.849912	0.369363	35.601829
26.826958	0.000395	0.183335	0.183335	75.274994	7.722145	0.749572	140.569404	140.569404	140.569404	4.176704	0.024376	2.830000	0.837970	0.366478	36.102221
27.213388	0.000410	0.186156	0.186157	75.541841	7.785085	0.748076	139.988050	139.988050	139.988050	4.181216	0.026303	2.830000	0.825801	0.363516	36.609020
27.605384	0.000425	0.189028	0.189028	75.809248	7.850820	0.746537	139.397674	139.397674	139.397674	4.185892	0.028400	2.830000	0.813405	0.360472	37.122260
28.003026	0.000441	0.191949	0.191950	76.077234	7.919510	0.744954	138.798113	138.798113	138.798113	4.190739	0.030683	2.830000	0.800780	0.357345	37.641965
28.406397	0.000457	0.194922	0.194923	76.345817	7.991329	0.743327	138.189198	138.189198	138.189198	4.195764	0.033173	2.830000	0.787929	0.354134	38.168156
28.815578	0.000475	0.197948	0.197949	76.615016	8.066465	0.741653	137.570759	137.570759	137.570759	4.200974	0.035890	2.830000	0.774852	0.350835	38.700847
29.230652	0.000493	0.201028	0.201029	76.884851	8.145120	0.739931	136.942618	136.942618	136.942618	4.206378	0.038858	2.830000	0.761550	0.347447	39.240046
29.651706	0.000512	0.204163	0.204164	77.155341	8.227511	0.738160	136.304595	136.304595	136.304595	4.211983	0.042103	2.830000	0.748025	0.343968	39.785750
30.078825	0.000532	0.207356	0.207356	77.426510	8.313875	0.736339	135.656503	135.656503	135.656503	4.217799	0.045655	2.830000	0.734279	0.340395	40.337948
30.512097	0.000552	0.210606	0.210607	77.698377	8.404469	0.734466	134.998152	134.998152	134.998152	4.223835	0.049546	2.830000	0.720315	0.336726	40.896618
30.951609	0.000574	0.213916	0.213917	77.970966	8.499569	0.732540	134.329344	134.329344	134.329344	4.230101	0.053815	2.830000	0.706136	0.332958	41.461728
31.397452	0.000597	0.217287	0.217288	78.244300	8.599480	0.730559	133.649878	133.649878	133.649878	4.236606	0.058503	2.830000	0.691747	0.329090	42.033227
31.849718	0.000621	0.220721	0.220722	78.518403	8.704531	0.728522	132.959544	132.959544	132.959544	4.243362	0.063657	2.830000	0.677151	0.325118	42.611055
32.308498	0.000646	0.224220	0.224221	78.793301	8.815081	0.726427	132.258130	132.258130	132.258130	4.250381	0.069332	2.830000	0.662354	0.321041	43.195130
32.773887	0.000672	0.227784	0.227785	79.069019	8.931525	0.724272	131.545413	131.545413	131.545413	4.257673	0.075587	2.830000	0.647361	0.316855	43.785350
33.245979	0.000700	0.231417	0.231418	79.345584	9.054294	0.722056	130.821166	130.821166	130.821166	4.265252	0.082492	2.830000	0.632180	0.312559	44.381593
33.724872	0.000729	0.235119	0.235121	79.623025	9.183863	0.719777	130.085155	130.085155	130.085155	4.273132	0.090124	2.830000	0.616816	0.308149	44.983707
34.210663	0.000759	0.238894	0.238895	79.901369	9.320753	0.717433	129.337136	129.337136	129.337136	4.281326	0.098572	2.830000	0.601280	0.303624	45.591514
34.703452	0.000791	0.242742	0.242743	80.180647	9.465541	0.715022	128.576860	128.576860	128.576860	4.289849	0.107938	2.830000	0.585579	0.298979	46.204798
35.203338	0.000825	0.246666	0.246667	80.460890	9.618864	0.712543	127.804067	127.804067	127.804067	4.298718	0.118337	2.830000	0.569724	0.294214	46.823307
35.710426	0.000861	0.250668	0.250669	80.742129	9.781429	0.709993	127.018491	127.018491	127.018491	4.307949	0.129901	2.830000	0.553725	0.289324	47.446741
36.224818	0.000898	0.254750	0.254752	81.024398	9.954022	0.707371	126.219855	126.219855	126.219855	4.317559	0.142784	2.830000	0.537595	0.284307	48.074750
36.746619	0.000938	0.258916	0.258918	81.307731	10.137521	0.704674	125.407872	125.407872	125.407872	4.327568	0.157160	2.830000	0.521346	0.279161	48.706922
37.275937	0.000979	0.263167	0.263169	81.592164	10.332907	0.701900	124.582246	124.582246	124.582246	4.337995	0.173231	2.830000	0.504994	0.273882	49.342776
37.812880	0.001023	0.267506	0.267508	81.877734	10.541280	0.699047	123.742670	123.742670	123.742670	4.348861	0.191230	2.830000	0.488553	0.268468	49.981749
38.357556	0.001070	0.271936	0.271939	82.164479	10.763880	0.696113	122.888824	122.888824	122.888824	4.360190	0.211428	2.830000	0.472041	0.262916	50.623182
38.910079	0.001119	0.276460	0.276463	82.452439	11.002108	0.693095	122.020378	122.020378	122.020378	4.372004	0.234139	2.830000	0.455475	0.257223	51.266305
39.470560	0.001171	0.281082	0.281084	82.741654	11.257554	0.689991	121.136987	121.136987	121.136987	4.384329	0.259728	2.830000	0.438875	0.251387	51.910215
40.039115	0.001227	0.285803	0.285806	83.032167	11.532028	0.686798	120.238294	120.238294	120.238294	4.397191	0.288622	2.830000	0.422262	0.245404	52.553853
40.615860	0.001285	0.290628	0.290631	83.324023	11.827598	0.683514	119.323927	119.323927	119.323927	4.410620	0.321318	2.830000	0.405659	0.239271	53.195976
41.200912	0.001347	0.295560	0.295563	83.617268	12.146644	0.680135	118.393497	118.393497	118.393497	4.424645	0.358402	2.830000	0.389090	0.232986	53.835117
41.794392	0.001413	0.300604	0.300607	83.911948	12.491910	0.676660	117.446603	117.446603	117.446603	4.439299	0.400560	2.830000	0.372582	0.226547	54.469545
42.396421	0.001484	0.305762	0.305766	84.208112	12.866582	0.673085	116.482821	116.482821	116.482821	4.454617	0.448599	2.830000	0.356161	0.219950	55.097204
43.007121	0.001558	0.311040	0.311044	84.505813	13.274376	0.669407	115.501712	115.501712	115.501712	4.470634	0.503474	2.830000	0.339859	0.213193	55.715648
43.626619	0.001638	0.316442	0.316447	84.805102	13.719654	0.665623	114.502817	114.502817	114.502817	4.487391	0.566309	2.830000	0.323706	0.206273	56.321951
44.255040	0.001723	0.321973	0.321978	85.106035	14.207570	0.661730	113.485655	113.485655	113.485655	4.504929	0.638436	2.830000	0.307737	0.199190	56.912593
44.892513	0.001814	0.327638	0.327643	85.408668	14.744250	0.657725	112.449722	112.449722	112.449722	4.523294	0.721433	2.830000	0.291988	0.191939	57.483317
45.539168	0.001911	0.333442	0.333447	85.713060	15.337036	0.653603	111.394491	111.394491	111.394491	4.542531	0.817166	2.830000	0.276497	0.184521	58.028941
46.195138	0.002014	0.339390	0.339396	86.019271	15.994794	0.649361	110.319408	110.319408	110.319408	4.562694	0.927846	2.830000	0.261304	0.176933	58.543107
46.860558	0.002125	0.345490	0.345497	86.327365	16.728323	0.644996	109.223893	109.223893	109.223893	4.583837	1.056082	2.830000	0.246453	0.169174	59.017952
47.535562	0.002244	0.351747	0.351754	86.637408	17.550901	0.640503	108.107334	108.107334	108.107334	4.606018	1.204949	2.830000	0.231989	0.161245	59.443660
48.220290	0.002372	0.358169	0.358177	86.949466	18.479020	0.635878	106.969090	106.969090	106.969090	4.629300	1.378047	2.830000	0.217960	0.153147	59.807856
48.914880	0.002510	0.364763	0.364771	87.263609	19.533388	0.631117	105.808483	105.808483	105.808483	4.653751	1.579561	2.830000	0.204418	0.144880	60.094748
49.619476	0.002657	0.371536	0.371546	87.579911	20.740315	0.626216	104.624799	104.624799	104.624799	4.679444	1.814291	2.830000	0.191416	0.136449	60.283931
50.334221	0.002817	0.378498	0.378509	87.898445	22.133659	0.621169	103.417286	103.417286	103.417286	4.706457	2.087656	2.830000	0.179011	0.127860	60.348647
51.059262	0.002989	0.385658	0.385670	88.219288	23.757575	0.615972	102.185146	102.185146	102.185146	4.734872	2.405604	2.830000	0.167263	0.119120	60.253240
51.794747	0.003175	0.393025	0.393038	88.542520	25.670456	0.610619	100.927539	100.927539	100.927539	4.764781	2.774421	2.830000	0.156233	0.110243	59.949322
52.540826	0.003377	0.400610	0.400624	88.868223	27.950583	0.605104	99.643571	99.643571	99.643571	4.796281	3.200338	2.830000	0.145989	0.101250	59.369884
53.297652	0.003596	0.408425	0.408441	89.196481	30.704170	0.599423	98.332297	98.332297	98.332297	4.829475	3.688880	2.830000	0.136599	0.092170	58.420047
54.065379	0.003833	0.416482	0.416499	89.527382	34.076353	0.593569	96.992713	96.992713	96.992713	4.864476	4.243882	2.830000	0.128135	0.083049	56.962220
54.844166	0.004092	0.424794	0.424813	89.861013	38.264402	0.587534	95.623752	95.623752	95.623752	4.901406	4.866128	2.830000	0.120674	0.073959	54.792006
55.634170	0.004374	0.433376	0.433398	90.197466	43.526744	0.581314	94.224278	94.224278	94.224278	4.940396	5.551667	2.830000	0.114292	0.065017	51.599379
56.435554	0.004682	0.442244	0.442268	90.536834	50.160591	0.574899	92.793083	92.793083	92.793083	4.981586	6.290071	2.830000	0.109074	0.056419	46.910217
57.248482	0.005019	0.451415	0.451443	90.879212	58.355222	0.568283	91.328876	91.328876	91.328876	5.025130	7.063094	2.830000	0.105104	0.048496	40.019884
58.073119	0.005389	0.460908	0.460939	91.224697	67.675874	0.561458	89.830280	89.830280	89.830280	5.071192	7.844435	2.830000	0.102471	0.041817	30.015364
58.909635	0.005796	0.470744	0.470779	91.573385	75.935656	0.554414	88.295825	88.295825	88.295825	5.119949	8.601321	2.830000	0.101267	0.037268	16.228780
59.758201	0.006244	0.480945	0.480986	91.925376	78.835914	0.547143	86.723935	86.723935	86.723935	5.171593	9.298197	2.830000	0.101586	0.035897	-0.484705
60.618990	0.006738	0.491537	0.491583	92.280767	73.962430	0.539634	85.112924	85.112924	85.112924	5.226332	9.902030	2.830000	0.103525	0.038263	-17.047916
61.492178	0.007286	0.502547	0.502600	92.639656	64.387924	0.531877	83.460984	83.460984	83.460984	5.284387	10.387828	2.830000	0.107185	0.043952	-30.489613
62.377944	0.007894	0.514006	0.514067	93.002140	54.374577	0.523861	81.766173	81.766173	81.766173	5.346001	10.742616	2.830000	0.112667	0.052046	-40.099300
63.276469	0.008571	0.525948	0.526017	93.368311	45.835775	0.515574	80.026409	80.026409	80.026409	5.411431	10.966626	2.830000	0.120075	0.061742	-46.591001
64.187937	0.009326	0.538409	0.538490	93.738261	39.025665	0.507003	78.239449	78.239449	78.239449	5.480956	11.071592	2.830000	0.129512	0.072516	-50.869781
65.112534	0.010172	0.551434	0.551527	94.112074	33.668392	0.498133	76.402883	76.402883	76.402883	5.554876	11.077125	2.830000	0.141083	0.084055	-53.623057
66.050449	0.011122	0.565068	0.565177	94.489827	29.427385	0.488952	74.514114	74.514114	74.514114	5.633509	11.006564	2.830000	0.154891	0.096169	-55.311096
67.001875	0.012192	0.579364	0.579492	94.871588	26.025734	0.479441	72.570348	72.570348	72.570348	5.717197	10.883435	2.830000	0.171036	0.108739	-56.234280
67.967006	0.013403	0.594383	0.594534	95.257412	23.256990	0.469585	70.568574	70.568574	70.568574	5.806303	10.729078	2.830000	0.189615	0.121684	-56.590286
68.946038	0.014779	0.610193	0.610372	95.647339	20.971204	0.459366	68.505546	68.505546	68.505546	5.901210	10.561456	2.830000	0.210719	0.134947	-56.511744
69.939174	0.016347	0.626870	0.627083	96.041390	19.059522	0.448764	66.377770	66.377770	66.377770	6.002321	10.394875	2.830000	0.234431	0.148482	-56.089580
70.946615	0.018142	0.644502	0.644757	96.439561	17.442185	0.437760	64.181483	64.181483	64.181483	6.110056	10.240263	2.830000	0.260819	0.162250	-55.387389
71.968567	0.020208	0.663191	0.663498	96.841817	16.059976	0.426330	61.912635	61.912635	61.912635	6.224845	10.105729	2.830000	0.289940	0.176214	-54.450414
73.005241	0.022596	0.683052	0.683425	97.248089	14.868316	0.414452	59.566879	59.566879	59.566879	6.347127	9.997190	2.830000	0.321829	0.190338	-53.311269
74.056847	0.025371	0.704220	0.704677	97.658261	13.833183	0.402103	57.139549	57.139549	57.139549	6.477337	9.918965	2.830000	0.356496	0.204581	-51.993671
75.123601	0.028616	0.726851	0.727414	98.072165	12.928282	0.389258	54.625656	54.625656	54.625656	6.615895	9.874288	2.830000	0.393917	0.218900	-50.514943
76.205721	0.032431	0.751127	0.751827	98.489569	12.133068	0.375892	52.019881	52.019881	52.019881	6.763188	9.865726	2.830000	0.434032	0.233247	-48.887722
77.303429	0.036947	0.777264	0.778142	98.910163	11.431329	0.361979	49.316578	49.316578	49.316578	6.919551	9.895512	2.830000	0.476730	0.247565	-47.121175
78.416948	0.042333	0.805513	0.806625	99.333548	10.810179	0.347496	46.509789	46.509789	46.509789	7.085235	9.965808	2.830000	0.521839	0.261790	-45.221877
79.546508	0.048805	0.836174	0.837597	99.759216	10.259323	0.332421	43.593270	43.593270	43.593270	7.260373	10.078914	2.830000	0.569118	0.275847	-43.194482
80.692338	0.056648	0.869602	0.871445	100.186538	9.770516	0.316733	40.560543	40.560543	40.560543	7.444932	10.237445	2.830000	0.618239	0.289647	-41.042260
81.854673	0.066242	0.906221	0.908639	100.614737	9.337165	0.300421	37.404968	37.404968	37.404968	7.638659	10.444479	2.830000	0.668777	0.303090	-38.767554
83.033751	0.078097	0.946538	0.949754	101.042876	8.954033	0.283478	34.119846	34.119846	34.119846	7.841013	10.703701	2.830000	0.720192	0.316059	-36.372200
84.229813	0.092907	0.991155	0.995500	101.469831	8.617024	0.265911	30.698567	30.698567	30.698567	8.051085	11.019537	2.830000	0.771817	0.328420	-33.857947
85.443104	0.111638	1.040783	1.046753	101.894274	8.323015	0.247747	27.134798	27.134798	27.134798	8.267518	11.397299	2.830000	0.822848	0.340021	-31.226888
86.673872	0.135641	1.096247	1.104607	102.314655	8.069748	0.229032	23.422726	23.422726	23.422726	8.488408	11.843340	2.830000	0.872340	0.350692	-28.481948
87.922369	0.166849	1.158468	1.170421	102.729191	7.855744	0.209853	19.557360	19.557360	19.557360	8.711223	12.365217	2.830000	0.919204	0.360246	-25.627425
89.188849	0.208058	1.228382	1.245878	103.135864	7.680255	0.190342	15.534888	15.534888	15.534888	8.932722	12.971879	2.830000	0.962228	0.368477	-22.669608
90.473572	0.263365	1.306740	1.333015	103.532424	7.543232	0.170706	11.353090	11.353090	11.353090	9.148920	13.673861	2.830000	1.000105	0.375171	-19.617485
91.776802	0.338808	1.393595	1.434189	103.916419	7.445322	0.151252	7.011781	7.011781	7.011781	9.355084	14.483482	2.830000	1.031486	0.380104	-16.483524
93.098803	0.443217	1.487162	1.551802	104.285239	7.387874	0.132445	2.513272	2.513272	2.513272	9.545818	15.415035	2.830000	1.055052	0.383060	-13.284538
94.439848	0.588999	1.581327	1.687458	104.636178	7.372963	0.114981	-2.137203	-2.137203	-2.137203	9.715225	16.484925	2.830000	1.069609	0.383835	-10.042605
95.800210	0.791666	1.660721	1.839763	104.966530	7.403428	0.099881	-6.931145	-6.931145	-6.931145	9.857185	17.711712	2.830000	1.074204	0.382255	-6.786007
97.180167	1.064262	1.692723	1.999491	105.273698	7.482909	0.088535	-11.856585	-11.856585	-11.856585	9.965728	19.115954	2.830000	1.068238	0.378195	-3.550184
98.580001	1.398929	1.621385	2.141470	105.555323	7.615889	0.082440	-16.898084	-16.898084	-16.898084	10.035486	20.719720	2.830000	1.051581	0.371592	-0.378638
100.000000	1.733509	1.385182	2.218960	105.809418	7.807710	0.082418	-22.036984	-22.036984	-22.036984	10.062178	22.545554	2.830000	1.024649	0.362462	2.676191
101.440453	1.944726	0.984552	2.179748	106.034494	8.064535	0.087887	-27.251923	-27.251923	-27.251923	10.043061	24.614583	2.830000	0.988442	0.350919	5.552116
102.901655	1.938605	0.535252	2.011140	106.229661	8.393194	0.097182	-32.519612	-32.519612	-32.519612	9.977268	26.943385	2.830000	0.944514	0.337178	8.176442
104.383905	1.750708	0.181893	1.760131	106.394697	8.800795	0.108506	-37.815802	-37.815802	-37.815802	9.865971	29.539175	2.830000	0.894882	0.321562	10.465338
105.887506	1.491886	-0.022576	1.492057	106.530068	9.293904	0.120464	-43.116364	-43.116364	-43.116364	9.712334	32.392952	2.830000	0.841881	0.304501	12.323537
107.412766	1.244283	-0.106841	1.248862	106.636899	9.876973	0.132109	-48.398350	-48.398350	-48.398350	9.521250	35.470642	2.830000	0.787980	0.286525	13.644969
108.959997	1.038963	-0.117663	1.045605	106.716906	10.549575	0.142835	-53.640948	-53.640948	-53.640948	9.298912	38.703154	2.830000	0.735595	0.268257	14.315577
110.529514	0.878324	-0.089833	0.882906	106.772282	11.301959	0.152269	-58.826220	-58.826220	-58.826220	9.052299	41.977801	2.830000	0.686915	0.250399	14.220601
112.121640	0.755171	-0.043763	0.756438	106.805576	12.108848	0.160199	-63.939588	-63.939588	-63.939588	8.788631	45.135398	2.830000	0.643776	0.233713	13.259773
113.736699	0.661111	0.009746	0.661183	106.819551	12.922800	0.166526	-68.970048	-68.970048	-68.970048	8.514901	47.978554	2.830000	0.607578	0.218993	11.373879
115.375023	0.589089	0.065310	0.592698	106.817068	13.671245	0.171233	-73.910141	-73.910141	-73.910141	8.237497	50.295239	2.830000	0.579261	0.207004	8.582406
117.036946	0.533760	0.120401	0.547171	106.800964	14.264199	0.174357	-78.755731	-78.755731	-78.755731	7.961964	51.896177	2.830000	0.559314	0.198399	5.021500
118.722808	0.491223	0.173956	0.521115	106.773976	14.617410	0.175976	-83.505649	-83.505649	-83.505649	7.692877	52.656274	2.830000	0.547825	0.193605	0.957522
120.432955	0.458672	0.225650	0.511173	106.738665	14.683861	0.176191	-88.161261	-88.161261	-88.161261	7.433830	52.544482	2.830000	0.544545	0.192729	-3.249455
122.167735	0.434098	0.275520	0.514152	106.697385	14.473340	0.175119	-92.726013	-92.726013	-92.726013	7.187486	51.629142	2.830000	0.548957	0.195532	-7.229166
123.927504	0.416068	0.323777	0.527204	106.652252	14.044827	0.172884	-97.204996	-97.204996	-97.204996	6.955687	50.057070	2.830000	0.560343	0.201498	-10.689323
125.712621	0.403576	0.370702	0.547990	106.605140	13.479011	0.169611	-101.604542	-101.604542	-101.604542	6.739578	48.016707	2.830000	0.577851	0.209956	-13.461696
127.523453	0.395927	0.416595	0.574725	106.557682	12.851390	0.165423	-105.931878	-105.931878	-105.931878	6.539740	45.700456	2.830000	0.600540	0.220210	-15.495817
129.360368	0.392673	0.461754	0.606143	106.511288	12.218394	0.160441	-110.194839	-110.194839	-110.194839	6.356316	43.277355	2.830000	0.627426	0.231618	-16.823225
131.223743	0.393564	0.506456	0.641397	106.467151	11.615679	0.154779	-114.401635	-114.401635	-114.401635	6.189117	40.879601	2.830000	0.657511	0.243636	-17.518775
133.113960	0.398517	0.550948	0.679971	106.426275	11.062424	0.148547	-118.560672	-118.560672	-118.560672	6.037722	38.600569	2.830000	0.689808	0.255821	-17.672309
135.031404	0.407603	0.595441	0.721588	106.389485	10.566790	0.141851	-122.680418	-122.680418	-122.680418	5.901550	36.499720	2.830000	0.723358	0.267820	-17.372305
136.976468	0.421038	0.640094	0.766155	106.357451	10.130408	0.134794	-126.769300	-126.769300	-126.769300	5.779915	34.610252	2.830000	0.757242	0.279357	-16.698340
138.949549	0.439191	0.685001	0.813704	106.330704	9.751447	0.127478	-130.835639	-130.835639	-130.835639	5.672079	32.946833	2.830000	0.790590	0.290213	-15.718734
140.951052	0.462592	0.730159	0.864363	106.309646	9.426517	0.120004	-134.887606	-134.887606	-134.887606	5.577276	31.512132	2.830000	0.822586	0.300217	-14.490830
142.981386	0.491943	0.775431	0.918314	106.294566	9.151765	0.112479	-138.933185	-138.933185	-138.933185	5.494738	30.301806	2.830000	0.852477	0.309230	-13.062385
145.040966	0.528132	0.820481	0.975763	106.285652	8.923471	0.105015	-142.980164	-142.980164	-142.980164	5.423708	29.308029	2.830000	0.879575	0.317141	-11.473285
147.130213	0.572244	0.864685	1.036891	106.282993	8.738346	0.097733	-147.036120	-147.036120	-147.036120	5.363445	28.521881	2.830000	0.903266	0.323860	-9.757239
149.249555	0.625539	0.906996	1.101790	106.286592	8.593674	0.090769	-151.108408	-151.108408	-151.108408	5.313230	27.934871	2.830000	0.923011	0.329312	-7.943317
151.399424	0.689388	0.945768	1.170356	106.296367	8.487352	0.084274	-155.204163	-155.204163	-155.204163	5.272361	27.539877	2.830000	0.938359	0.333437	-6.057298
153.580262	0.765122	0.978526	1.242145	106.312154	8.417902	0.078415	-159.330281	-159.330281	-159.330281	5.240149	27.331670	2.830000	0.948951	0.336188	-4.122852
155.792513	0.853704	1.001712	1.316145	106.333710	8.384450	0.073371	-163.493408	-163.493408	-163.493408	5.215912	27.307161	2.830000	0.954528	0.337530	-2.162602
158.036631	0.955166	1.010494	1.390482	106.360713	8.386702	0.069320	-167.699920	-167.699920	-167.699920	5.198964	27.465444	2.830000	0.954947	0.337439	-0.199091
160.313075	1.067719	0.998814	1.462072	106.392764	8.424909	0.066413	-171.955891	-171.955891	-171.955891	5.188607	27.807654	2.830000	0.950181	0.335909	1.744291
162.622309	1.186608	0.960028	1.526333	106.429384	8.499831	0.064745	-176.267056	-176.267056	-176.267056	5.184124	28.336641	2.830000	0.940339	0.332948	3.642401
164.964807	1.303104	0.888509	1.577189	106.470021	8.612666	0.064323	179.361240	-180.638760	179.361240	5.184762	29.056384	2.830000	0.925667	0.328586	5.467435
167.341048	1.404523	0.782315	1.607701	106.514046	8.764955	0.065056	174.924103	-185.075897	174.924103	5.189731	29.971083	2.830000	0.906560	0.322877	7.188020
169.751517	1.476360	0.646098	1.611546	106.560757	8.958409	0.066771	170.417157	-189.582843	170.417157	5.198193	31.083771	2.830000	0.883561	0.315904	8.768334
172.196708	1.506727	0.492233	1.585093	106.609388	9.194632	0.069239	165.836625	-194.163375	165.836625	5.209262	32.394308	2.830000	0.857362	0.307788	10.167349
174.677121	1.491145	0.338351	1.529050	106.659110	9.474663	0.072219	161.179410	-198.820590	161.179410	5.222000	33.896597	2.830000	0.828799	0.298691	11.338363
177.193263	1.434487	0.201821	1.448615	106.709051	9.798267	0.075478	156.443184	-203.556816	156.443184	5.235427	35.574950	2.830000	0.798831	0.288827	12.229140
179.745648	1.348594	0.094494	1.351901	106.758302	10.162877	0.078805	151.626466	-208.373534	151.626466	5.248531	37.399720	2.830000	0.768522	0.278464	12.783183
182.334800	1.247473	0.020715	1.247645	106.805942	10.562131	0.082022	146.728701	-213.271299	146.728701	5.260288	39.322723	2.830000	0.739001	0.267938	12.942900
184.961247	1.143212	-0.021316	1.143411	106.851054	10.984071	0.084976	141.750311	-218.249689	141.750311	5.269683	41.273563	2.830000	0.711423	0.257646	12.655664
187.625527	1.044166	-0.036751	1.044812	106.892758	11.409372	0.087545	136.692723	-223.307277	136.692723	5.275749	43.158673	2.830000	0.686913	0.248042	11.883646
190.328185	0.955036	-0.031659	0.955561	106.930233	11.810439	0.089627	131.558370	-228.441630	131.558370	5.277598	44.865323	2.830000	0.666510	0.239619	10.617519
193.069773	0.877822	-0.011601	0.877898	106.962753	12.152727	0.091147	126.350641	-233.649359	126.350641	5.274465	46.272372	2.830000	0.651100	0.232870	8.891979
195.850852	0.812851	0.018933	0.813071	106.989713	12.399594	0.092049	121.073793	-238.926207	121.073793	5.265750	47.267667	2.830000	0.641359	0.228233	6.797836
198.671992	0.759582	0.056576	0.761686	107.010659	12.520629	0.092298	115.732807	-244.267193	115.732807	5.251051	47.768785	2.830000	0.637699	0.226027	4.482916
201.533769	0.717126	0.098921	0.723917	107.025311	12.500759	0.091881	110.333203	-249.666797	110.333203	5.230199	47.740925	2.830000	0.640228	0.226386	2.135809
204.436768	0.684543	0.144294	0.699585	107.033586	12.345558	0.090803	104.880812	-255.119188	104.880812	5.203272	47.205323	2.830000	0.648727	0.229232	-0.045699
207.381584	0.661002	0.191546	0.688196	107.035603	12.079542	0.089092	99.381519	-260.618481	99.381519	5.170606	46.234766	2.830000	0.662653	0.234280	-1.890188
210.368818	0.645859	0.239881	0.688968	107.031689	11.738522	0.086793	93.840982	-266.159018	93.840982	5.132783	44.938132	2.830000	0.681159	0.241087	-3.278141
213.399082	0.638685	0.288719	0.700911	107.022370	11.360318	0.083972	88.264359	-271.735641	88.264359	5.090609	43.439939	2.830000	0.703141	0.249113	-4.150066
216.472995	0.639274	0.337580	0.722933	107.008354	10.977879	0.080712	82.656039	-277.343961	82.656039	5.045077	41.861605	2.830000	0.727300	0.257791	-4.499532
219.591187	0.647643	0.385989	0.753943	106.990507	10.616179	0.077115	77.019408	-282.980592	77.019408	4.997322	40.308657	2.830000	0.752223	0.266574	-4.358661
222.754295	0.664017	0.433377	0.792927	106.969821	10.292159	0.073300	71.356655	-288.643345	71.356655	4.948565	38.864884	2.830000	0.776460	0.274967	-3.783023
225.962966	0.688801	0.478973	0.838965	106.947372	10.016214	0.069401	65.668623	-294.331377	65.668623	4.900067	37.592039	2.830000	0.798612	0.282542	-2.839705
229.217857	0.722535	0.521684	0.891185	106.924285	9.794104	0.065568	59.954724	-300.045276	59.954724	4.853070	36.532883	2.830000	0.817408	0.288949	-1.599460
232.519632	0.765783	0.559947	0.948665	106.901687	9.628658	0.061961	54.212898	-305.787102	54.212898	4.808751	35.715535	2.830000	0.831775	0.293914	-0.132404
235.868968	0.818956	0.591574	1.010271	106.880667	9.521067	0.058744	48.439638	-311.560362	48.439638	4.768182	35.157781	2.830000	0.840891	0.297236	1.493742
239.266550	0.881983	0.613625	1.074444	106.862233	9.471761	0.056073	42.630056	-317.369944	42.630056	4.732292	34.870569	2.830000	0.844226	0.298783	3.213757
242.713072	0.953824	0.622397	1.138929	106.847274	9.480932	0.054080	36.778004	-323.221996	36.778004	4.701845	34.860365	2.830000	0.841569	0.298494	4.964036
246.209240	1.031810	0.613696	1.200522	106.836529	9.548761	0.052849	30.876235	-329.123765	30.876235	4.677410	35.130218	2.830000	0.833041	0.296374	6.681191
249.755769	1.110967	0.583612	1.254930	106.830552	9.675381	0.052400	24.916597	-335.083403	24.916597	4.659351	35.679452	2.830000	0.819090	0.292495	8.300472
253.353383	1.183751	0.529936	1.296957	106.829689	9.860534	0.052678	18.890276	-341.109724	18.890276	4.647809	36.501881	2.830000	0.800476	0.287003	9.754368
257.002820	1.240792	0.453980	1.321235	106.834060	10.102887	0.053566	12.788056	-347.211944	12.788056	4.642695	37.582442	2.830000	0.778243	0.280118	10.971830
260.704825	1.273087	0.361907	1.323529	106.843544	10.398875	0.054905	6.600627	-353.399373	6.600627	4.643683	38.892305	2.830000	0.753677	0.272145	11.878818
264.460155	1.275101	0.264297	1.302205	106.857777	10.741018	0.056515	0.318906	-359.681094	0.318906	4.650210	40.382929	2.830000	0.728239	0.263476	12.401245
268.269580	1.247090	0.173471	1.259097	106.876155	11.115746	0.058217	-6.065617	-366.065617	-6.065617	4.661483	41.980403	2.830000	0.703499	0.254594	12.471732
272.133877	1.195025	0.099798	1.199185	106.897856	11.501196	0.059847	-12.560524	-372.560524	-12.560524	4.676496	43.582571	2.830000	0.681031	0.246061	12.041585
276.053838	1.128178	0.049131	1.129247	106.921869	11.866112	0.061263	-19.172126	-379.172126	-19.172126	4.694059	45.062546	2.830000	0.662316	0.238494	11.098289
280.030263	1.056040	0.022501	1.056279	106.947035	12.171709	0.062347	-25.905151	-385.905151	-25.905151	4.712849	46.281946	2.830000	0.648614	0.232506	9.685582
284.063968	0.986219	0.017501	0.986374	106.972113	12.378260	0.063009	-32.762497	-392.762497	-32.762497	4.731472	47.114319	2.830000	0.640845	0.228627	7.918163
288.155776	0.923777	0.030090	0.924267	106.995847	12.455972	0.063186	-39.745073	-399.745073	-39.745073	4.748546	47.473697	2.830000	0.639479	0.227200	5.979419
292.306525	0.871547	0.055964	0.873342	107.017046	12.395768	0.062846	-46.851778	-406.851778	-46.851778	4.762798	47.337948	2.830000	0.644450	0.228304	4.094502
296.517063	0.830822	0.091268	0.835820	107.034672	12.213609	0.061988	-54.079623	-414.079623	-54.079623	4.773168	46.756410	2.830000	0.655119	0.231709	2.484497
300.788252	0.802009	0.132816	0.812932	107.047916	11.945311	0.060646	-61.424025	-421.424025	-61.424025	4.778900	45.838032	2.830000	0.670286	0.236913	1.320789
305.120965	0.785112	0.178023	0.805042	107.056264	11.635305	0.058885	-68.879264	-428.879264	-68.879264	4.779618	44.725785	2.830000	0.688276	0.243225	0.698612
309.516090	0.780030	0.224709	0.811752	107.059543	11.325822	0.056806	-76.439055	-436.439055	-76.439055	4.775371	43.568465	2.830000	0.707093	0.249871	0.635313
313.974523	0.786690	0.270846	0.832009	107.057937	11.050652	0.054543	-84.097222	-444.097222	-84.097222	4.766632	42.499225	2.830000	0.724614	0.256093	1.085468
318.497179	0.805048	0.314310	0.864230	107.051968	10.833656	0.052255	-91.848365	-451.848365	-91.848365	4.754256	41.624386	2.830000	0.738828	0.261223	1.961190
323.084981	0.834954	0.352633	0.906365	107.042458	10.690085	0.050118	-99.688486	-459.688486	-99.688486	4.739392	41.020882	2.830000	0.748058	0.264731	3.149635
327.738869	0.875851	0.382813	0.955856	107.030446	10.628754	0.048305	-107.615477	-467.615477	-107.615477	4.723377	40.738424	2.830000	0.751164	0.266259	4.524877
332.459793	0.926284	0.401281	1.009469	107.017104	10.653825	0.046961	-115.629443	-475.629443	-115.629443	4.707602	40.802537	2.830000	0.747683	0.265632	5.954663
337.248720	0.983245	0.404183	1.063078	107.003633	10.765659	0.046181	-123.732818	-483.732818	-123.732818	4.693387	41.215805	2.830000	0.737894	0.262873	7.303959
342.106630	1.041566	0.388224	1.111566	106.991163	10.960485	0.045980	-131.930278	-491.930278	-131.930278	4.681873	41.955999	2.830000	0.722797	0.258200	8.437727
347.034515	1.093831	0.352151	1.149120	106.980671	11.228825	0.046294	-140.228464	-500.228464	-140.228464	4.673934	42.971187	2.830000	0.704019	0.252030	9.225675
352.033384	1.131480	0.298465	1.170183	106.972905	11.552841	0.046992	-148.635565	-508.635565	-148.635565	4.670130	44.173762	2.830000	0.683629	0.244961	9.552085
357.104260	1.147327	0.234261	1.170999	106.968347	11.903437	0.047905	-157.160800	-517.160800	-157.160800	4.670684	45.437726	2.830000	0.663915	0.237746	9.333546
362.248179	1.138494	0.169964	1.151111	106.967187	12.239149	0.048851	-165.813863	-525.813863	-165.813863	4.675508	46.605730	2.830000	0.647104	0.231225	8.545007
367.466194	1.107823	0.116102	1.113890	106.969339	12.510108	0.049664	-174.604386	-534.604386	-174.604386	4.684242	47.511715	2.830000	0.635079	0.226217	7.248010
372.759372	1.062658	0.079966	1.065663	106.974462	12.669521	0.050208	176.458527	-543.541473	176.458527	4.696322	48.018628	2.830000	0.629116	0.223371	5.605552
378.128796	1.011943	0.064166	1.013975	106.982012	12.690148	0.050389	167.366663	-552.633337	167.366663	4.711059	48.059347	2.830000	0.629677	0.223008	3.864206
383.575563	0.963609	0.067316	0.965957	106.991290	12.576621	0.050157	158.112932	-561.887068	158.112932	4.727713	47.661080	2.830000	0.636296	0.225021	2.297948
389.100789	0.923356	0.085715	0.927326	107.001499	12.364523	0.049514	148.691484	-571.308516	148.691484	4.745548	46.939024	2.830000	0.647605	0.228881	1.135403
394.705603	0.894650	0.114821	0.901988	107.011789	12.106816	0.048514	139.097732	-580.902268	139.097732	4.763871	46.062472	2.830000	0.661494	0.233753	0.506125
400.391152	0.879264	0.150057	0.891977	107.021292	11.857209	0.047258	129.328341	-590.671659	129.328341	4.782033	45.211107	2.830000	0.675427	0.238673	0.425597
406.158599	0.877814	0.187039	0.897520	107.029157	11.659027	0.045889	119.381224	-600.618776	119.381224	4.799412	44.539272	2.830000	0.686858	0.242730	0.811764
412.009123	0.890019	0.221467	0.917160	107.034575	11.541233	0.044575	109.255597	-610.744403	109.255597	4.815381	44.155298	2.830000	0.693696	0.245208	1.514108
417.943921	0.914597	0.248981	0.947882	107.036820	11.518535	0.043484	98.952078	-621.047922	98.952078	4.829299	44.112693	2.830000	0.694725	0.245691	2.341586
423.964207	0.948848	0.265235	0.985222	107.035319	11.592090	0.042747	88.472772	-631.527228	88.472772	4.840546	44.406395	2.830000	0.689891	0.244132	3.086278
430.071212	0.988113	0.266499	1.023421	107.029739	11.748838	0.042423	77.821221	-642.178779	77.821221	4.848612	44.970014	2.830000	0.680370	0.240875	3.546909
436.266186	1.025620	0.250945	1.055874	107.020105	11.959660	0.042485	67.002060	-652.997940	67.002060	4.853264	45.676121	2.830000	0.668368	0.236629	3.558876
442.550395	1.053441	0.220296	1.076229	107.006914	12.178970	0.042818	56.020233	-663.979767	56.020233	4.854738	46.348179	2.830000	0.656679	0.232368	3.034083
448.925126	1.064924	0.180702	1.080146	106.991201	12.350560	0.043260	44.879719	-675.120281	44.879719	4.853912	46.794372	2.830000	0.648068	0.229139	2.002691
455.391681	1.057624	0.141486	1.067046	106.974526	12.423280	0.043637	33.581851	-686.418149	33.581851	4.852383	46.863725	2.830000	0.644629	0.227798	0.632268
461.951385	1.034661	0.111841	1.040688	106.958818	12.372123	0.043805	22.123537	-697.876463	22.123537	4.852375	46.504016	2.830000	0.647270	0.228740	-0.805341
468.605578	1.003324	0.097516	1.008052	106.946079	12.210861	0.043674	10.495824	-709.504176	10.495824	4.856429	45.787414	2.830000	0.655475	0.231761	-2.021769
475.355621	0.972073	0.099534	0.977156	106.937940	11.985534	0.043226	-1.316615	-721.316615	-1.316615	4.866883	44.884476	2.830000	0.667409	0.236118	-2.811963
482.202895	0.948022	0.115033	0.954975	106.935157	11.754098	0.042513	-13.334531	-733.334531	-13.334531	4.885205	44.001528	2.830000	0.680366	0.240767	-3.112711
489.148802	0.935830	0.138856	0.946075	106.937145	11.566676	0.041653	-25.581328	-745.581328	-25.581328	4.911287	43.315319	2.830000	0.691460	0.244668	-3.003458
496.194760	0.937576	0.164803	0.951950	106.941710	11.454421	0.040803	-38.078460	-758.078460	-38.078460	4.942922	42.927676	2.830000	0.698438	0.247066	-2.669900
503.342213	0.952792	0.186355	0.970845	106.945165	11.425250	0.040125	-50.839634	-770.839634	-50.839634	4.975697	42.842058	2.830000	0.700391	0.247697	-2.353889
510.592621	0.978216	0.197339	0.997923	106.942948	11.462129	0.039735	-63.865201	-783.865201	-63.865201	5.003603	42.956643	2.830000	0.698166	0.246900	-2.296009
517.947468	1.007481	0.193214	1.025841	106.930772	11.523542	0.039657	-77.138897	-797.138897	-77.138897	5.020493	43.077958	2.830000	0.694251	0.245584	-2.666249
525.408258	1.031686	0.173187	1.046121	106.906080	11.551434	0.039809	-90.629246	-810.629246	-90.629246	5.022169	42.970588	2.830000	0.692040	0.244991	-3.489455
532.976517	1.042002	0.142138	1.051652	106.869325	11.492237	0.040028	-104.296895	-824.296895	-104.296895	5.008407	42.448475	2.830000	0.694648	0.246253	-4.603820
540.653794	1.033906	0.110078	1.039749	106.824518	11.324538	0.040132	-118.106947	-838.106947	-118.106947	4.983979	41.471621	2.830000	0.703712	0.249900	-5.705985
548.441658	1.010089	0.088040	1.013919	106.778582	11.072233	0.039981	-132.042729	-852.042729	-132.042729	4.957966	40.179291	2.830000	0.718704	0.255594	-6.484543
556.341702	0.979242	0.082988	0.982752	106.739500	10.790383	0.039520	-146.116127	-866.116127	-146.116127	4.941395	38.827328	2.830000	0.737067	0.262271	-6.759257
564.355543	0.951837	0.095508	0.956617	106.713665	10.537315	0.038792	-160.370073	-880.370073	-160.370073	4.943828	37.675026	2.830000	0.755105	0.268569	-6.540274
572.484820	0.936396	0.120860	0.944163	106.703129	10.353634	0.037930	-174.870726	-894.870726	-174.870726	4.969781	36.890514	2.830000	0.769294	0.273334	-6.002279
580.731195	0.937840	0.151165	0.949945	106.703643	10.253262	0.037124	170.310842	-909.689158	170.310842	5.015810	36.500006	2.830000	0.777617	0.276010	-5.418557
589.096355	0.957026	0.177049	0.973265	106.704427	10.220365	0.036561	155.124774	-924.875226	155.124774	5.069354	36.369731	2.830000	0.780543	0.276898	-5.080351
597.582011	0.990080	0.188963	1.007951	106.690551	10.209594	0.036344	139.569326	-940.430674	139.569326	5.110911	36.222001	2.830000	0.781227	0.277190	-5.194630
606.189899	1.027510	0.179611	1.043090	106.648092	10.157449	0.036432	123.706009	-956.293991	123.706009	5.120696	35.720639	2.830000	0.784484	0.278613	-5.767279
614.921780	1.055157	0.148334	1.065532	106.570596	10.012985	0.036639	107.649156	-972.350844	107.649156	5.088289	34.640735	2.830000	0.794633	0.282633	-6.548137
623.779440	1.059868	0.104865	1.065043	106.463646	9.772117	0.036725	91.525847	-988.474153	91.525847	5.019949	33.025890	2.830000	0.813213	0.289599	-7.138794
632.764690	1.038116	0.066657	1.040253	106.344452	9.480283	0.036506	75.420870	-1004.579130	75.420870	4.938112	31.177830	2.830000	0.838096	0.298514	-7.220628
641.879368	0.999248	0.049039	1.000450	106.235944	9.200103	0.035922	59.333418	-1020.666582	59.333418	4.872866	29.477806	2.830000	0.864557	0.307605	-6.711657
651.125339	0.959349	0.057091	0.961046	106.157833	8.978892	0.035047	43.165810	-1036.834190	43.165810	4.850405	28.204861	2.830000	0.887470	0.315184	-5.757519
660.504493	0.932703	0.085669	0.936629	106.117972	8.836316	0.034052	26.748657	-1053.251343	26.748657	4.883097	27.454428	2.830000	0.903398	0.320269	-4.634781
670.018750	0.927693	0.123881	0.935928	106.106747	8.764126	0.033160	9.896971	-1070.103029	9.896971	4.962587	27.126113	2.830000	0.911972	0.322907	-3.651966
679.670056	0.946326	0.158627	0.959529	106.096986	8.727829	0.032561	-7.512452	-1087.512452	-7.512452	5.057378	26.936559	2.830000	0.916328	0.324250	-3.050291
689.460384	0.983811	0.176634	0.999542	106.052210	8.674465	0.032316	-25.464942	-1105.464942	-25.464942	5.120332	26.493217	2.830000	0.922106	0.326245	-2.881586
699.391737	1.027305	0.167886	1.040933	105.943375	8.558365	0.032290	-43.779795	-1123.779795	-43.779795	5.110998	25.492753	2.830000	0.934577	0.330671	-2.926999
709.466146	1.057537	0.132362	1.065788	105.766603	8.374600	0.032228	-62.176902	-1142.176902	-62.176902	5.023138	23.947764	2.830000	0.955190	0.337927	-2.800920
719.685673	1.058426	0.085118	1.061843	105.548687	8.161998	0.031906	-80.421706	-1160.421706	-80.421706	4.893095	22.187665	2.830000	0.980509	0.346729	-2.216087
730.052407	1.029787	0.049510	1.030977	105.334569	7.970122	0.031253	-98.455902	-1178.455902	-98.455902	4.779280	20.612495	2.830000	1.004664	0.355076	-1.148217
740.568469	0.987998	0.041189	0.988856	105.165111	7.829831	0.030346	-116.432728	-1196.432728	-116.432728	4.731732	19.470992	2.830000	1.022863	0.361438	0.217146
751.236010	0.953503	0.059983	0.955388	105.057550	7.746512	0.029353	-134.652771	-1214.652771	-134.652771	4.771272	18.799930	2.830000	1.033459	0.365326	1.619525
762.057212	0.940065	0.094296	0.944782	104.995337	7.704077	0.028464	-153.436433	-1233.436433	-153.436433	4.879680	18.446161	2.830000	1.038298	0.367338	2.830616
773.034288	0.951836	0.128169	0.960426	104.931240	7.671081	0.027808	-172.966174	-1252.966174	-172.966174	4.999792	18.114636	2.830000	1.041811	0.368918	3.743341
784.169484	0.983320	0.146000	0.994099	104.808337	7.614505	0.027378	166.844161	-1273.155839	166.844161	5.057238	17.494680	2.830000	1.048629	0.371659	4.446573
795.465078	1.019453	0.137812	1.028726	104.594874	7.522504	0.027014	146.341384	-1293.658616	146.341384	5.009270	16.472359	2.830000	1.060293	0.376205	5.190533
806.923378	1.040208	0.106842	1.045681	104.308842	7.413837	0.026527	125.924278	-1314.075722	125.924278	4.882953	15.226229	2.830000	1.073955	0.381719	6.195137
818.546731	1.033621	0.071554	1.036095	104.007356	7.318932	0.025835	105.772748	-1334.227252	105.772748	4.755992	14.061254	2.830000	1.084940	0.386668	7.487819
830.337512	1.006453	0.053072	1.007851	103.748815	7.256469	0.024985	85.736271	-1354.263729	85.736271	4.700784	13.183372	2.830000	1.090308	0.389997	8.931530
842.298134	0.977971	0.059109	0.979756	103.557378	7.226535	0.024100	65.436586	-1374.563414	65.436586	4.743396	12.615699	2.830000	1.090237	0.391612	10.347983
854.431043	0.964941	0.081489	0.968376	103.408398	7.214986	0.023297	44.494561	-1395.505439	44.494561	4.850561	12.223222	2.830000	1.087298	0.392239	11.617176
866.738721	0.972975	0.104096	0.978527	103.241548	7.202337	0.022628	22.775788	-1417.224212	22.775788	4.942886	11.791577	2.830000	1.084619	0.392928	12.737923
879.223685	0.995027	0.111828	1.001292	103.002000	7.177144	0.022041	0.511840	-1439.488160	0.511840	4.946173	11.169784	2.830000	1.083552	0.394307	13.827307
891.888489	1.014615	0.099395	1.019472	102.685877	7.145289	0.021429	-21.861970	-1461.861970	-21.861970	4.857961	10.394930	2.830000	1.082581	0.396065	15.017893
904.735724	1.016632	0.077070	1.019550	102.345161	7.122494	0.020729	-44.075020	-1484.075020	-44.075020	4.753165	9.642009	2.830000	1.079053	0.397333	16.336508
917.768017	1.001111	0.063535	1.003125	102.042800	7.118831	0.019964	-66.250245	-1506.250245	-66.250245	4.715863	9.054699	2.830000	1.071767	0.397537	17.701017
930.988035	0.983386	0.068670	0.985781	101.800063	7.132101	0.019208	-88.795573	-1528.795573	-88.795573	4.771698	8.643604	2.830000	1.061710	0.396798	19.007532
944.398480	0.979522	0.085650	0.983260	101.577092	7.151353	0.018524	-112.064199	-1552.064199	-112.064199	4.865900	8.295087	2.830000	1.050951	0.395729	20.211837
958.002097	0.993409	0.097688	0.998201	101.303765	7.166361	0.017911	-136.019165	-1576.019165	-136.019165	4.899646	7.865202	2.830000	1.040785	0.394901	21.362573
971.801667	1.013097	0.091078	1.017183	100.947458	7.177673	0.017308	-160.211877	-1600.211877	-160.211877	4.823987	7.318126	2.830000	1.030482	0.394278	22.552228
985.800014	1.018664	0.068659	1.020975	100.553699	7.195647	0.016661	175.792991	-1624.207009	175.792991	4.701056	6.764074	2.830000	1.018254	0.393293	23.814662
1000.000000	1.001986	0.050998	1.003283	100.206062	7.228553	0.015977	151.956735	-1648.043265	151.956735	4.643211	6.336295	2.830000	1.003379	0.391503	25.093739
1014.404530	0.977888	0.055897	0.979484	99.945171	7.274878	0.015309	127.764959	-1672.235041	127.764959	4.705914	6.066596	2.830000	0.986885	0.389010	26.306539
1029.016551	0.969380	0.079718	0.972652	99.722072	7.324986	0.014709	102.678621	-1697.321379	102.678621	4.831480	5.859788	2.830000	0.970554	0.386349	27.417565
1043.839051	0.986625	0.101060	0.991788	99.430507	7.369488	0.014179	76.704254	-1723.295746	76.704254	4.879457	5.566890	2.830000	0.955284	0.384016	28.476065
1058.875063	1.017159	0.097409	1.021813	99.014731	7.409766	0.013662	50.525820	-1749.474180	50.525820	4.769592	5.140555	2.830000	0.940064	0.381928	29.571655
1074.127661	1.031551	0.066933	1.033720	98.544164	7.456696	0.013110	24.831116	-1775.168884	24.831116	4.592894	4.696674	2.830000	0.923252	0.379525	30.728870
1089.599965	1.012510	0.037926	1.013220	98.146784	7.517526	0.012531	-0.449264	-1800.449264	-0.449264	4.510549	4.374407	2.830000	0.904594	0.376454	31.886754
1105.295141	0.978752	0.039369	0.979543	97.880080	7.589525	0.011973	-26.094944	-1826.094944	-26.094944	4.591808	4.203566	2.830000	0.885288	0.372882	32.972601
1121.216399	0.963450	0.068292	0.965868	97.668684	7.663325	0.011475	-52.872364	-1852.872364	-52.872364	4.749242	4.089384	2.830000	0.866772	0.369291	33.965746
1137.366994	0.981109	0.096228	0.985817	97.364017	7.731410	0.011034	-80.714434	-1880.714434	-80.714434	4.795905	3.890365	2.830000	0.849387	0.366039	34.919415
1153.750232	1.015695	0.094370	1.020069	96.907346	7.797075	0.010602	-108.658134	-1908.658134	-108.658134	4.656182	3.575311	2.830000	0.831984	0.362957	35.906072
1170.369462	1.030884	0.062097	1.032753	96.409274	7.869978	0.010148	-135.946040	-1935.946040	-135.946040	4.477663	3.260308	2.830000	0.813510	0.359594	36.927228
1187.228084	1.009923	0.034815	1.010523	96.018187	7.953762	0.009689	-162.908148	-1962.908148	-162.908148	4.438381	3.051699	2.830000	0.794276	0.355806	37.925791
1204.329547	0.979233	0.040909	0.980087	95.757429	8.043820	0.009257	169.452444	-1990.547556	169.452444	4.557970	2.944143	2.830000	0.775315	0.351823	38.858668
1221.677349	0.972522	0.068520	0.974932	95.502156	8.132983	0.008869	140.544589	-2019.455411	140.544589	4.682598	2.842217	2.830000	0.757273	0.347966	39.735296
1239.275037	0.994119	0.084788	0.997729	95.120795	8.219432	0.008508	110.891942	-2049.108058	110.891942	4.648606	2.664874	2.830000	0.739771	0.344306	40.604745
1257.126212	1.016761	0.071362	1.019262	94.644399	8.308682	0.008147	81.466662	-2078.533338	81.466662	4.507208	2.446696	2.830000	0.722028	0.340608	41.491430
1275.234525	1.012838	0.047299	1.013942	94.216490	8.405045	0.007784	52.373413	-2107.626587	52.373413	4.443042	2.273896	2.830000	0.704000	0.336703	42.368825
1293.603680	0.992424	0.043746	0.993388	93.896445	8.506605	0.007438	22.800816	-2137.199184	22.800816	4.517770	2.167000	2.830000	0.686246	0.332683	43.206381
1312.237433	0.985542	0.059338	0.987327	93.592625	8.608993	0.007117	-7.846016	-2167.846016	-7.846016	4.606167	2.072307	2.830000	0.669118	0.328726	44.007090
1331.139597	0.998442	0.067389	1.000714	93.201319	8.711424	0.006815	-39.153217	-2199.153217	-39.153217	4.574081	1.942355	2.830000	0.652376	0.324861	44.797558
1350.314038	1.007761	0.055904	1.009310	92.765380	8.817200	0.006517	-70.410420	-2230.410420	-70.410420	4.488140	1.802986	2.830000	0.635682	0.320964	45.585940
1369.764677	0.997905	0.045896	0.998960	92.394642	8.927731	0.006228	-101.794336	-2261.794336	-101.794336	4.497278	1.699620	2.830000	0.619165	0.316990	46.354058
1389.495494	0.988157	0.055119	0.989693	92.077097	9.040567	0.005956	-134.045318	-2294.045318	-134.045318	4.583257	1.621786	2.830000	0.603130	0.313033	47.092112
1409.510524	0.998652	0.065997	1.000830	91.694640	9.153843	0.005701	-167.157265	-2327.157265	-167.157265	4.582857	1.524493	2.830000	0.587534	0.309160	47.814975
1429.813862	1.013343	0.054494	1.014807	91.238110	9.269698	0.005452	159.717400	-2360.282600	159.717400	4.476900	1.409410	2.830000	0.572095	0.305296	48.535451
1450.409659	1.003145	0.035650	1.003778	90.845908	9.390282	0.005209	126.733813	-2393.266187	126.733813	4.446682	1.322994	2.830000	0.556836	0.301375	49.240939
1471.302129	0.981759	0.043185	0.982709	90.561705	9.513762	0.004979	92.923348	-2427.076652	92.923348	4.556734	1.273002	2.830000	0.542045	0.297464	49.917115
1492.495545	0.986614	0.066997	0.988886	90.228289	9.637284	0.004766	57.827867	-2462.172133	57.827867	4.613017	1.210815	2.830000	0.527771	0.293651	50.574199
1513.994242	1.013918	0.065593	1.016038	89.748505	9.762209	0.004560	22.541478	-2497.458522	22.541478	4.484424	1.113840	2.830000	0.513715	0.289893	51.231350
1535.802619	1.017127	0.035999	1.017764	89.287807	9.891782	0.004357	-12.136510	-2532.136510	-12.136510	4.376906	1.029650	2.830000	0.499787	0.286096	51.881732
1557.925134	0.988489	0.028610	0.988903	88.990669	10.025234	0.004163	-47.233512	-2567.233512	-47.233512	4.465752	0.988341	2.830000	0.486244	0.282288	52.507166
1580.366314	0.978265	0.055022	0.979811	88.715136	10.159357	0.003983	-83.874996	-2603.874996	-83.874996	4.582298	0.953123	2.830000	0.473216	0.278561	53.110183
1603.130749	1.003623	0.067721	1.005905	88.271113	10.294176	0.003812	-121.199064	-2641.199064	-121.199064	4.493283	0.884285	2.830000	0.460483	0.274913	53.709595
1626.223094	1.018582	0.043376	1.019505	87.782967	10.432798	0.003644	-157.917184	-2677.917184	-157.917184	4.361013	0.812468	2.830000	0.447904	0.271260	54.305587
1649.648074	0.997110	0.028046	0.997504	87.445715	10.575314	0.003482	165.210740	-2714.789260	165.210740	4.415052	0.772917	2.830000	0.435645	0.267604	54.883172
1673.410480	0.983603	0.046208	0.984688	87.159031	10.719277	0.003331	126.908805	-2753.091195	126.908805	4.522807	0.743742	2.830000	0.423814	0.264010	55.441928
1697.515172	1.000179	0.057382	1.001823	86.741715	10.864528	0.003187	87.794994	-2792.205006	87.794994	4.465734	0.694509	2.830000	0.412276	0.260481	55.994297
1721.967081	1.009149	0.041872	1.010017	86.295548	11.013059	0.003047	48.910705	-2831.089295	48.910705	4.388611	0.644401	2.830000	0.400952	0.256968	56.540288
1746.771208	0.996045	0.036222	0.996704	85.952852	11.164651	0.002914	9.526344	-2870.473656	9.526344	4.448717	0.612323	2.830000	0.389941	0.253479	57.071637
1771.932627	0.995336	0.046799	0.996436	85.598855	11.318015	0.002787	-31.026840	-2911.026840	-31.026840	4.483122	0.580290	2.830000	0.379258	0.250044	57.590953
1797.456484	1.004481	0.042327	1.005372	85.175398	11.473820	0.002666	-71.937932	-2951.937932	-71.937932	4.420338	0.541274	2.830000	0.368822	0.246648	58.103463
1823.348001	0.995938	0.035315	0.996564	84.814119	11.632685	0.002549	-113.150013	-2993.150013	-113.150013	4.445192	0.512189	2.830000	0.358654	0.243280	58.605074
1849.612473	0.992969	0.047488	0.994104	84.471116	11.793624	0.002439	-155.531217	-3035.531217	-155.531217	4.502737	0.486679	2.830000	0.348789	0.239960	59.095070
1876.255272	1.009298	0.045710	1.010332	84.025098	11.956857	0.002333	161.593185	-3078.406815	161.593185	4.421087	0.451645	2.830000	0.339162	0.236684	59.578991
1903.281848	1.002822	0.026675	1.003177	83.633449	12.123443	0.002231	118.856363	-3121.143637	118.856363	4.395829	0.424456	2.830000	0.329766	0.233432	60.054064
1930.697729	0.984405	0.038124	0.985143	83.348949	12.292452	0.002134	74.921714	-3165.078286	74.921714	4.507386	0.408824	2.830000	0.320666	0.230223	60.516431
1958.508523	1.001605	0.054304	1.003076	82.932260	12.463279	0.002042	29.828427	-3210.171573	29.828427	4.460427	0.381970	2.830000	0.311811	0.227067	60.972221
1986.719919	1.014380	0.031670	1.014875	82.462386	12.637387	0.001953	-14.769518	-3254.769518	-14.769518	4.346294	0.352595	2.830000	0.303149	0.223939	61.422659
2015.337686	0.989614	0.024916	0.989927	82.167177	12.814615	0.001868	-59.888674	-3299.888674	-59.888674	4.440131	0.338819	2.830000	0.294744	0.220842	61.861531
2044.367679	0.990437	0.048848	0.991641	81.829669	12.993739	0.001788	-106.720048	-3346.720048	-106.720048	4.480837	0.322401	2.830000	0.286593	0.217797	62.291633
2073.815835	1.012129	0.040601	1.012943	81.350447	13.175679	0.001711	-153.553609	-3393.553609	-153.553609	4.357268	0.296970	2.830000	0.278629	0.214790	62.717356
2103.688178	0.998791	0.024582	0.999093	80.996129	13.360967	0.001636	159.578586	-3440.421414	159.578586	4.393127	0.281532	2.830000	0.270881	0.211811	63.134221
2133.990819	0.991497	0.039320	0.992277	80.673149	13.548639	0.001566	111.167969	-3488.832031	111.167969	4.455617	0.268811	2.830000	0.263367	0.208877	63.542262
2164.729954	1.004650	0.038201	1.005376	80.240253	13.739055	0.001498	62.242196	-3537.757804	62.242196	4.384671	0.250269	2.830000	0.256043	0.205982	63.944914
2195.911873	0.998389	0.030603	0.998858	79.874333	13.932629	0.001433	12.977081	-3587.022919	12.977081	4.413815	0.236631	2.830000	0.248918	0.203120	64.340050
2227.542952	0.999436	0.037296	1.000131	79.503241	14.128890	0.001372	-37.491960	-3637.491960	-37.491960	4.427269	0.223466	2.830000	0.241996	0.200299	64.727996
2259.629662	1.002059	0.028852	1.002475	79.100996	14.328208	0.001312	-88.331029	-3688.331029	-88.331029	4.390253	0.209535	2.830000	0.235254	0.197512	65.109938
2292.178566	0.992008	0.034307	0.992601	78.772710	14.530500	0.001256	-140.155499	-3740.155499	-140.155499	4.457884	0.199842	2.830000	0.228706	0.194763	65.484411
2325.196322	1.006454	0.039301	1.007221	78.344109	14.735597	0.001202	167.033667	-3792.966333	167.033667	4.400214	0.186251	2.830000	0.222334	0.192052	65.853336
2358.689683	1.001419	0.020784	1.001635	77.957835	14.944087	0.001150	114.322735	-3845.677265	114.322735	4.380965	0.175291	2.830000	0.216132	0.189373	66.216145
2392.665500	0.988343	0.036597	0.989021	77.658607	15.155470	0.001101	60.064129	-3899.935871	60.064129	4.471734	0.168307	2.830000	0.210113	0.186731	66.571644
2427.130723	1.010443	0.037368	1.011134	77.191959	15.369848	0.001053	5.149622	-3954.850378	5.149622	4.361664	0.155499	2.830000	0.204250	0.184127	66.922568
2462.092401	0.997853	0.018795	0.998030	76.837858	15.587756	0.001008	-49.622838	-4009.622838	-49.622838	4.386334	0.147440	2.830000	0.198547	0.181553	67.267222
2497.557686	0.992259	0.038016	0.992987	76.512563	15.808589	0.000965	-106.218449	-4066.218449	-106.218449	4.440429	0.140724	2.830000	0.193012	0.179017	67.605497
2533.533832	1.008402	0.029873	1.008845	76.057688	16.032730	0.000923	-163.049358	-4123.049358	-163.049358	4.347529	0.130372	2.830000	0.187620	0.176514	67.939261
2570.028197	0.994932	0.024937	0.995245	75.728748	16.260309	0.000884	139.503289	-4180.496711	139.503289	4.412374	0.124334	2.830000	0.182381	0.174043	68.266862
2607.048246	1.000479	0.032692	1.001013	75.340114	16.491068	0.000846	80.684133	-4239.315867	80.684133	4.390842	0.116957	2.830000	0.177287	0.171608	68.589274
2644.601552	0.998852	0.026536	0.999204	74.961584	16.725328	0.000810	21.429972	-4298.570028	21.429972	4.398226	0.110277	2.830000	0.172333	0.169204	68.906541
2682.695795	1.001619	0.031015	1.002099	74.579648	16.962954	0.000775	-39.049857	-4359.049857	-39.049857	4.398300	0.103896	2.830000	0.167517	0.166834	69.218593
2721.338768	0.998552	0.021936	0.998793	74.203493	17.204153	0.000742	-100.006895	-4420.006895	-100.006895	4.392242	0.098017	2.830000	0.162833	0.164495	69.525705
2760.538375	0.996513	0.034674	0.997116	73.852407	17.448783	0.000710	-162.454373	-4482.454373	-162.454373	4.429701	0.093004	2.830000	0.158282	0.162189	69.827641
2800.302634	1.007555	0.021740	1.007790	73.413668	17.697062	0.000680	134.822797	-4545.177203	134.822797	4.350618	0.086488	2.830000	0.153853	0.159914	70.125224
2840.639679	0.989592	0.026572	0.989949	73.118303	17.948993	0.000651	71.015067	-4608.984933	71.015067	4.441395	0.083126	2.830000	0.149551	0.157669	70.417499
2881.557759	1.008130	0.031406	1.008619	72.670982	18.204496	0.000623	6.051351	-4673.948649	6.051351	4.353405	0.077149	2.830000	0.145366	0.155456	70.705599
2923.065245	0.995311	0.018116	0.995476	72.331445	18.463890	0.000596	-59.021014	-4739.021014	-59.021014	4.396124	0.073401	2.830000	0.141298	0.153272	70.988932
2965.170628	1.000037	0.032524	1.000565	71.953648	18.726924	0.000571	-125.900026	-4805.900026	-125.900026	4.386421	0.069223	2.830000	0.137344	0.151119	71.267772
3007.882518	1.001106	0.020566	1.001317	71.558921	18.993896	0.000547	167.027549	-4872.972451	167.027549	4.372723	0.065030	2.830000	0.133498	0.148995	71.542393
3051.209653	0.998932	0.026830	0.999292	71.199773	19.264710	0.000523	98.482787	-4941.517213	98.482787	4.390500	0.061593	2.830000	0.129760	0.146901	71.812559
3095.160895	0.998317	0.023149	0.998585	70.822305	19.539498	0.000501	29.167992	-5010.832008	29.167992	4.392758	0.058093	2.830000	0.126126	0.144835	72.078589
3139.745234	1.003274	0.026224	1.003617	70.429486	19.818259	0.000480	-41.418933	-5081.418933	-41.418933	4.378305	0.054598	2.830000	0.122593	0.142798	72.340488
3184.971790	0.995009	0.019472	0.995199	70.080802	20.101131	0.000459	-112.666490	-5152.666490	-112.666490	4.405282	0.051838	2.830000	0.119158	0.140788	72.598273
3230.849813	1.004279	0.029755	1.004720	69.677911	20.388045	0.000440	174.475037	-5225.524963	174.475037	4.375606	0.048608	2.830000	0.115820	0.138807	72.852119
3277.388687	0.996244	0.015355	0.996362	69.320175	20.679223	0.000421	101.440858	-5298.559142	101.440858	4.390466	0.046055	2.830000	0.112573	0.136852	73.102040
3324.597932	1.001794	0.030533	1.002259	68.938149	20.974546	0.000403	26.503427	-5373.496573	26.503427	4.377705	0.043393	2.830000	0.109418	0.134925	73.348082
3372.487204	0.998740	0.015639	0.998863	68.559742	21.274242	0.000386	-48.547631	-5448.547631	-48.547631	4.375868	0.040919	2.830000	0.106351	0.133025	73.590411
3421.066299	1.000250	0.026818	1.000610	68.190210	21.578232	0.000369	-125.414365	-5525.414365	-125.414365	4.376102	0.038666	2.830000	0.103369	0.131151	73.828966
3470.345152	0.999138	0.019536	0.999329	67.812211	21.886679	0.000354	157.131531	-5602.868469	157.131531	4.382933	0.036465	2.830000	0.100470	0.129302	74.063925
3520.333844	1.000836	0.020887	1.001054	67.431445	22.199586	0.000339	78.251741	-5681.748259	78.251741	4.371660	0.034368	2.830000	0.097653	0.127480	74.295291
3571.042600	0.998354	0.024343	0.998650	67.070413	22.517038	0.000324	-1.844743	-5761.844743	-1.844743	4.397907	0.032539	2.830000	0.094914	0.125683	74.523117
3622.481792	1.001063	0.015375	1.001181	66.674988	22.839113	0.000311	-82.803365	-5842.803365	-82.803365	4.368519	0.030565	2.830000	0.092251	0.123910	74.747539
3674.661941	0.999270	0.027413	0.999646	66.319525	23.165833	0.000297	-165.461558	-5925.461558	-165.461558	4.392401	0.028976	2.830000	0.089663	0.122163	74.968499
3727.593720	0.998927	0.013116	0.999013	65.932222	23.497332	0.000285	111.485793	-6008.514207	111.485793	4.373503	0.027269	2.830000	0.087146	0.120439	75.186182
3781.287957	1.002002	0.025996	1.002339	65.556887	23.833596	0.000273	26.525270	-6093.474730	26.525270	4.367540	0.025733	2.830000	0.084701	0.118740	75.400542
3835.755635	0.996938	0.015936	0.997065	65.194244	24.174775	0.000261	-58.914855	-6178.914855	-58.914855	4.385311	0.024355	2.830000	0.082323	0.117064	75.611691
3891.007893	1.001919	0.020472	1.002128	64.802801	24.520874	0.000250	-146.064288	-6266.064288	-146.064288	4.361818	0.022899	2.830000	0.080012	0.115412	75.819675
3947.056035	0.999983	0.019874	1.000180	64.435881	24.872001	0.000239	125.672787	-6354.327213	125.672787	4.379017	0.021652	2.830000	0.077766	0.113783	76.024529
4003.911523	0.996788	0.018280	0.996956	64.073508	25.228218	0.000229	36.117440	-6443.882560	36.117440	4.392705	0.020494	2.830000	0.075583	0.112176	76.226315
4061.585988	1.004593	0.016791	1.004734	63.664580	25.589590	0.000220	-54.820021	-6534.820021	-54.820021	4.353394	0.019191	2.830000	0.073460	0.110592	76.425111
4120.091227	0.995996	0.023108	0.996264	63.332188	25.956197	0.000210	-147.158226	-6627.158226	-147.158226	4.400251	0.018291	2.830000	0.071397	0.109030	76.620895
4179.439206	1.000389	0.011982	1.000461	62.929369	26.328125	0.000201	119.663933	-6720.336067	119.663933	4.364399	0.017152	2.830000	0.069392	0.107490	76.813809
4239.642065	1.002378	0.022036	1.002620	62.555248	26.705420	0.000193	24.629095	-6815.370905	24.629095	4.359665	0.016191	2.830000	0.067443	0.105971	77.003828
4300.712118	0.997108	0.016696	0.997248	62.198994	27.088195	0.000185	-71.275881	-6911.275881	-71.275881	4.384904	0.015347	2.830000	0.065548	0.104474	77.191024
4362.661857	0.999989	0.016835	1.000131	61.812597	27.476503	0.000177	-168.799150	-7008.799150	-168.799150	4.372205	0.014447	2.830000	0.063707	0.102997	77.375454
4425.503952	1.001360	0.015236	1.001475	61.431262	27.870433	0.000169	92.269035	-7107.730965	92.269035	4.364201	0.013615	2.830000	0.061917	0.101541	77.557150
4489.251258	1.000816	0.021091	1.001038	61.064063	28.270060	0.000162	-8.321347	-7208.321347	-8.321347	4.376858	0.012873	2.830000	0.060177	0.100106	77.736151
4553.916814	0.994939	0.014285	0.995041	60.709729	28.675480	0.000155	-109.945247	-7309.945247	-109.945247	4.394994	0.012207	2.830000	0.058486	0.098691	77.912507
4619.513847	1.004454	0.013684	1.004548	60.294592	29.086756	0.000149	146.783084	-7413.216916	146.783084	4.345381	0.011415	2.830000	0.056842	0.097295	78.086277
4686.055775	0.999758	0.020057	0.999959	59.945450	29.503982	0.000143	41.968552	-7518.031448	41.968552	4.369891	0.010838	2.830000	0.055244	0.095919	78.257465
4753.556208	0.998306	0.015103	0.998420	59.573953	29.927249	0.000137	-64.044291	-7624.044291	-64.044291	4.378264	0.010237	2.830000	0.053691	0.094563	78.426142
4822.028953	0.999025	0.015864	0.999151	59.197503	30.356634	0.000131	-171.811322	-7731.811322	-171.811322	4.377322	0.009659	2.830000	0.052182	0.093225	78.592339
4891.488015	0.999685	0.012261	0.999760	58.818070	30.792230	0.000125	78.934781	-7841.065219	78.934781	4.369483	0.009107	2.830000	0.050715	0.091906	78.756095
4961.947603	1.004397	0.016314	1.004530	58.427045	31.234119	0.000120	-32.131766	-7952.131766	-32.131766	4.351354	0.008563	2.830000	0.049289	0.090606	78.917449
5033.422128	0.997574	0.019265	0.997760	58.084433	31.682400	0.000115	-144.646842	-8064.646842	-144.646842	4.383271	0.008143	2.830000	0.047903	0.089324	79.076428
5105.926210	0.996957	0.012380	0.997034	57.708419	32.137165	0.000110	101.543996	-8178.456004	101.543996	4.380565	0.007684	2.830000	0.046556	0.088060	79.233087
5179.474679	1.001113	0.013355	1.001203	57.317534	32.598499	0.000105	-14.134055	-8294.134055	-14.134055	4.362018	0.007225	2.830000	0.045247	0.086814	79.387455
5254.082580	0.999513	0.013653	0.999606	56.950861	33.066502	0.000101	-131.483280	-8411.483280	-131.483280	4.369167	0.006833	2.830000	0.043974	0.085585	79.539562
5329.765172	1.002412	0.012453	1.002489	56.563907	33.541268	0.000097	109.438318	-8530.561682	109.438318	4.357081	0.006431	2.830000	0.042737	0.084374	79.689450
5406.537936	1.002571	0.017347	1.002721	56.192741	34.022893	0.000093	-11.510885	-8651.510885	-11.510885	4.359906	0.006075	2.830000	0.041535	0.083179	79.837148
5484.416576	0.996957	0.016787	0.997098	55.842817	34.511479	0.000089	-133.949041	-8773.949041	-133.949041	4.383066	0.005767	2.830000	0.040367	0.082002	79.982691
5563.417021	0.997530	0.012035	0.997603	55.463638	35.007125	0.000085	102.008418	-8897.991582	102.008418	4.377473	0.005438	2.830000	0.039231	0.080841	80.126117
5643.555431	1.000059	0.012843	1.000141	55.079697	35.509930	0.000081	-23.999470	-9023.999470	-23.999470	4.368517	0.005122	2.830000	0.038127	0.079696	80.267454
5724.848197	0.998047	0.013197	0.998134	54.714997	36.019998	0.000078	-151.858111	-9151.858111	-151.858111	4.378626	0.004846	2.830000	0.037055	0.078567	80.406734
5807.311946	0.998440	0.009724	0.998488	54.337552	36.537434	0.000075	78.505611	-9281.494389	78.505611	4.373257	0.004571	2.830000	0.036012	0.077455	80.543991
5890.963548	1.002399	0.009657	1.002446	53.947012	37.062342	0.000071	-53.058985	-9413.058985	-53.058985	4.352579	0.004299	2.830000	0.034999	0.076358	80.679254
5975.820111	1.002871	0.012985	1.002955	53.573532	37.594831	0.000068	173.480280	-9546.519720	173.480280	4.350305	0.004059	2.830000	0.034014	0.075276	80.812552
6061.898993	1.000306	0.013212	1.000394	53.211192	38.135010	0.000066	38.207785	-9681.792215	38.207785	4.362657	0.003842	2.830000	0.033057	0.074210	80.943915
6149.217802	1.000395	0.010803	1.000453	52.835934	38.682990	0.000063	-99.015027	-9819.015027	-99.015027	4.363358	0.003626	2.830000	0.032126	0.073159	81.073376
6237.794396	1.002876	0.010657	1.002933	52.451764	39.238881	0.000060	121.669041	-9958.330959	121.669041	4.352674	0.003415	2.830000	0.031222	0.072122	81.200960
6327.646895	1.003454	0.012883	1.003537	52.077130	39.802797	0.000058	-19.661668	-10099.661668	-19.661668	4.348964	0.003224	2.830000	0.030343	0.071101	81.326697
6418.793677	1.001455	0.013737	1.001549	51.712775	40.374856	0.000055	-162.900468	-10242.900468	-162.900468	4.356651	0.003050	2.830000	0.029489	0.070093	81.450613
6511.253386	0.999873	0.011912	0.999944	51.345206	40.955173	0.000053	51.868355	-10388.131645	51.868355	4.364232	0.002884	2.830000	0.028659	0.069100	81.572738
6605.044933	1.000460	0.009530	1.000505	50.968016	41.543866	0.000051	-95.520127	-10535.520127	-95.520127	4.362508	0.002720	2.830000	0.027852	0.068121	81.693097
6700.187504	1.002022	0.008702	1.002060	50.587518	42.141057	0.000049	114.901289	-10685.098711	114.901289	4.354586	0.002564	2.830000	0.027068	0.067155	81.811718
6796.700558	1.002535	0.009450	1.002579	50.212421	42.746867	0.000046	-36.797970	-10836.797970	-36.797970	4.350858	0.002420	2.830000	0.026306	0.066204	81.928625
6894.603838	1.001285	0.010552	1.001341	49.845089	43.361421	0.000045	169.367686	-10990.632314	169.367686	4.357760	0.002288	2.830000	0.025565	0.065265	82.043844
6993.917368	0.999082	0.011171	0.999145	49.481622	43.984844	0.000043	13.284767	-11146.715233	13.284767	4.371029	0.002166	2.830000	0.024846	0.064340	82.157402
7094.661463	0.997307	0.011347	0.997372	49.116115	44.617263	0.000041	-145.093778	-11305.093778	-145.093778	4.380094	0.002049	2.830000	0.024146	0.063428	82.269321
7196.856730	0.996992	0.011344	0.997057	48.744225	45.258809	0.000039	54.292567	-11465.707433	54.292567	4.379137	0.001935	2.830000	0.023466	0.062529	82.379628
7300.524071	0.998274	0.010975	0.998334	48.365265	45.909611	0.000037	-108.552954	-11628.552954	-108.552954	4.371365	0.001825	2.830000	0.022805	0.061643	82.488346
7405.684692	1.000178	0.009762	1.000225	47.983236	46.569804	0.000036	86.251917	-11793.748083	86.251917	4.363019	0.001719	2.830000	0.022163	0.060769	82.595498
7512.360102	1.001073	0.007939	1.001104	47.605292	47.239523	0.000034	-81.372538	-11961.372538	-81.372538	4.358754	0.001622	2.830000	0.021539	0.059907	82.701108
7620.572122	1.000277	0.007025	1.000301	47.235107	47.918904	0.000033	108.599124	-12131.400876	108.599124	4.361131	0.001532	2.830000	0.020932	0.059058	82.805198
7730.342884	0.999407	0.008160	0.999440	46.866261	48.608086	0.000032	-63.857016	-12303.857016	-63.857016	4.366068	0.001448	2.830000	0.020343	0.058221	82.907791
7841.694843	1.000510	0.009698	1.000557	46.489063	49.307210	0.000030	121.160666	-12478.839334	121.160666	4.363162	0.001366	2.830000	0.019770	0.057395	83.008908
7954.650775	1.002228	0.008869	1.002267	46.108134	50.016420	0.000029	-56.344196	-12656.344196	-56.344196	4.354046	0.001288	2.830000	0.019213	0.056581	83.108573
8069.233784	1.001323	0.007107	1.001348	45.738110	50.735860	0.000028	123.671506	-12836.328494	123.671506	4.355863	0.001217	2.830000	0.018672	0.055779	83.206805
8185.467307	0.999685	0.008066	0.999718	45.372511	51.465678	0.000027	-58.910885	-12658.910885	-58.910885	4.364992	0.001151	2.830000	0.018146	0.054988	83.303626
8303.375120	1.001025	0.009006	1.001065	44.994038	52.206023	0.000025	115.820015	-12484.179985	115.820015	4.360018	0.001086	2.830000	0.017635	0.054208	83.399057
8422.981339	1.001205	0.006812	1.001229	44.619215	52.957046	0.000024	-72.072021	-12312.072021	-72.072021	4.357072	0.001025	2.830000	0.017138	0.053440	83.493119
8544.310429	0.998718	0.007128	0.998743	44.257035	53.718900	0.000023	97.338349	-12142.661651	97.338349	4.368362	0.000970	2.830000	0.016655	0.052682	83.585830
8667.387209	0.999670	0.008578	0.999706	43.880473	54.491743	0.000022	-96.008721	-11976.008721	-96.008721	4.364263	0.000915	2.830000	0.016186	0.051934	83.677212
8792.236851	0.999134	0.006964	0.999158	43.509066	55.275731	0.000021	67.875970	-11812.124030	67.875970	4.367163	0.000865	2.830000	0.015730	0.051198	83.767283
8918.884894	0.997752	0.009312	0.997796	43.142964	56.071026	0.000021	-131.160605	-11651.160605	-131.160605	4.374004	0.000818	2.830000	0.015287	0.050472	83.856063
9047.357242	1.000263	0.009361	1.000306	42.759072	56.877789	0.000020	27.069223	-11492.930777	27.069223	4.360287	0.000770	2.830000	0.014856	0.049756	83.943571
9177.680175	0.999307	0.009148	0.999349	42.390091	57.696186	0.000019	-177.639093	-11337.639093	-177.639093	4.368598	0.000728	2.830000	0.014438	0.049050	84.029825
9309.880348	1.002009	0.009116	1.002050	42.005376	58.526385	0.000018	-25.346630	-11185.346630	-25.346630	4.353990	0.000686	2.830000	0.014031	0.048354	84.114843
9443.984802	1.000176	0.006536	1.000198	41.639304	59.368555	0.000017	124.120030	-11035.879970	124.120030	4.361332	0.000649	2.830000	0.013636	0.047668	84.198644
9580.020968	1.000343	0.007308	1.000370	41.265888	60.222868	0.000017	-89.560527	-10889.560527	-89.560527	4.361034	0.000612	2.830000	0.013252	0.046992	84.281244
9718.016671	0.997936	0.007289	0.997962	40.903323	61.089499	0.000016	53.649839	-10746.350161	53.649839	4.373075	0.000580	2.830000	0.012878	0.046325	84.362663
9858.000137	1.000657	0.009082	1.000698	40.519205	61.968626	0.000015	-166.254394	-10606.254394	-166.254394	4.358316	0.000546	2.830000	0.012515	0.045668	84.442916
10000.000000	1.000232	0.007989	1.000264	40.147684	62.860428	0.000015	-29.228819	-10469.228819	-29.228819	4.363343	0.000516	2.830000	0.012163	0.045020	84.522021
10144.045304	1.000872	0.005693	1.000888	39.771131	63.765087	0.000014	104.549885	-10335.450115	104.549885	4.357987	0.000487	2.830000	0.011820	0.044382	84.599995
10290.165513	0.998711	0.008131	0.998744	39.408399	64.682789	0.000013	-124.991061	-10204.991061	-124.991061	4.367642	0.000461	2.830000	0.011487	0.043752	84.676853
10438.390514	0.999645	0.007713	0.999675	39.031261	65.613722	0.000013	2.242253	-10077.757747	2.242253	4.365336	0.000435	2.830000	0.011163	0.043131	84.752612
10588.750628	1.001726	0.006353	1.001746	38.648856	66.558075	0.000012	126.085250	-9953.914750	126.085250	4.354110	0.000409	2.830000	0.010849	0.042519	84.827288
10741.276608	0.998789	0.007314	0.998816	38.288966	67.516042	0.000012	-113.454663	-9833.454663	-113.454663	4.367143	0.000388	2.830000	0.010543	0.041916	84.900897
10895.999653	0.999447	0.007617	0.999476	37.913287	68.487820	0.000011	3.549365	-9716.450635	3.549365	4.366486	0.000366	2.830000	0.010246	0.041321	84.973454
11052.951411	1.001097	0.005345	1.001111	37.532485	69.473606	0.000011	117.083970	-9602.916030	117.083970	4.356391	0.000345	2.830000	0.009957	0.040735	85.044975
11212.163986	0.999580	0.007352	0.999607	37.166795	70.473602	0.000010	-132.969799	-9492.969799	-132.969799	4.362947	0.000326	2.830000	0.009677	0.040157	85.115474
11373.669943	1.000688	0.007720	1.000718	36.789203	71.488013	0.000010	-26.636031	-9386.636031	-26.636031	4.360748	0.000308	2.830000	0.009404	0.039587	85.184965
11537.502317	0.998546	0.005793	0.998563	36.424991	72.517047	0.000009	76.123546	-9283.876454	76.123546	4.368441	0.000291	2.830000	0.009139	0.039025	85.253465
11703.694619	1.000033	0.006760	1.000055	36.045959	73.560913	0.000009	175.137011	-9184.862989	175.137011	4.362537	0.000275	2.830000	0.008881	0.038472	85.320986
11872.280844	0.999964	0.004719	0.999975	35.672745	74.619826	0.000009	-89.588306	-9089.588306	-89.588306	4.361808	0.000259	2.830000	0.008631	0.037926	85.387544
12043.295474	1.000754	0.006886	1.000778	35.297107	75.694002	0.000008	1.815653	-8998.184347	1.815653	4.357451	0.000245	2.830000	0.008388	0.037387	85.453151
12216.773490	1.000394	0.005233	1.000407	34.925308	76.783660	0.000008	89.438783	-8910.561217	89.438783	4.359948	0.000231	2.830000	0.008151	0.036857	85.517822
12392.750375	1.001048	0.007167	1.001073	34.550170	77.889024	0.000008	173.020473	-8826.979527	173.020473	4.356434	0.000218	2.830000	0.007922	0.036334	85.581571
12571.262124	0.999828	0.005702	0.999844	34.182177	79.010320	0.000007	-107.224789	-8747.224789	-107.224789	4.362081	0.000206	2.830000	0.007698	0.035818	85.644409
12752.345251	1.001433	0.006455	1.001454	33.802583	80.147777	0.000007	-31.640811	-8671.640811	-31.640811	4.355353	0.000195	2.830000	0.007481	0.035310	85.706352
12936.036796	0.999715	0.006421	0.999736	33.437162	81.301627	0.000007	39.943974	-8600.056026	39.943974	4.362054	0.000184	2.830000	0.007270	0.034809	85.767411
13122.374331	1.000919	0.004908	1.000931	33.058685	82.472107	0.000006	107.363958	-8532.636042	107.363958	4.357478	0.000174	2.830000	0.007066	0.034315	85.827599
13311.395971	1.000964	0.006124	1.000983	32.685982	83.659457	0.000006	170.522044	-8469.477956	170.522044	4.356356	0.000164	2.830000	0.006866	0.033828	85.886929
13503.140379	0.999273	0.005097	0.999286	32.320203	84.863918	0.000006	-130.526527	-8410.526527	-130.526527	4.365123	0.000155	2.830000	0.006673	0.033348	85.945412
13697.646775	0.999880	0.004215	0.999889	31.944504	86.085738	0.000006	-75.938716	-8355.938716	-75.938716	4.361663	0.000146	2.830000	0.006485	0.032874	86.003062
13894.954944	1.000211	0.005906	1.000228	31.570691	87.325166	0.000005	-25.782879	-8305.782879	-25.782879	4.361847	0.000138	2.830000	0.006302	0.032408	86.059891
14095.105244	0.999556	0.006643	0.999578	31.200889	88.582456	0.000005	19.892474	-8260.107526	19.892474	4.363645	0.000131	2.830000	0.006124	0.031948	86.115909
14298.138616	0.999731	0.005057	0.999744	30.826919	89.857864	0.000005	61.164044	-8218.835956	61.164044	4.362217	0.000123	2.830000	0.005952	0.031494	86.171129
14504.096588	1.000022	0.003865	1.000030	30.452541	91.151653	0.000005	97.776025	-8182.223975	97.776025	4.361008	0.000116	2.830000	0.005784	0.031047	86.225562
14713.021288	1.000263	0.005010	1.000276	30.078978	92.464086	0.000005	129.724293	-8150.275707	129.724293	4.360882	0.000110	2.830000	0.005621	0.030606	86.279219
14924.955451	1.001066	0.005773	1.001083	29.702875	93.795432	0.000004	156.901558	-8123.098442	156.901558	4.356564	0.000104	2.830000	0.005462	0.030172	86.332112
15139.942425	1.000087	0.005270	1.000101	29.334197	95.145964	0.000004	179.383725	-8100.616275	179.383725	4.361150	0.000098	2.830000	0.005308	0.029744	86.384252
15358.026185	0.999492	0.006062	0.999510	28.964159	96.515957	0.000004	-163.087590	-8083.087590	-163.087590	4.364137	0.000093	2.830000	0.005159	0.029322	86.435648
15579.251340	0.999751	0.005026	0.999764	28.590005	97.905691	0.000004	-150.383399	-8070.383399	-150.383399	4.362141	0.000087	2.830000	0.005013	0.028905	86.486313
15803.663140	0.998949	0.005383	0.998963	28.220775	99.315452	0.000004	-142.771835	-8062.771835	-142.771835	4.366405	0.000083	2.830000	0.004872	0.028495	86.536256
16031.307485	0.999631	0.004680	0.999642	27.844868	100.745527	0.000004	-140.154362	-8060.154362	-140.154362	4.362714	0.000078	2.830000	0.004735	0.028091	86.585488
16262.230941	0.999109	0.005339	0.999123	27.474493	102.196209	0.000003	-142.767593	-8062.767593	-142.767593	4.365330	0.000074	2.830000	0.004601	0.027692	86.634018
16496.480741	0.999447	0.004625	0.999458	27.100090	103.667794	0.000003	-150.522587	-8070.522587	-150.522587	4.364059	0.000070	2.830000	0.004472	0.027299	86.681858
16734.104799	1.000014	0.005465	1.000029	26.725030	105.160584	0.000003	-163.648840	-8083.648840	-163.648840	4.360617	0.000066	2.830000	0.004345	0.026911	86.729016
16975.151720	0.999764	0.005216	0.999778	26.353284	106.674884	0.000003	177.902228	-8102.097772	177.902228	4.363364	0.000062	2.830000	0.004223	0.026529	86.775504
17219.670809	1.000638	0.004307	1.000648	25.976533	108.211004	0.000003	154.021004	-8125.978996	154.021004	4.357929	0.000058	2.830000	0.004104	0.026153	86.821329
17467.712080	1.000964	0.004036	1.000972	25.602296	109.769258	0.000003	124.576606	-8155.423394	124.576606	4.356781	0.000055	2.830000	0.003988	0.025781	86.866502
17719.326270	0.999870	0.003983	0.999878	25.234265	111.349964	0.000003	89.553062	-8190.446938	89.553062	4.361629	0.000052	2.830000	0.003876	0.025415	86.911032
17974.564843	0.998989	0.004382	0.998999	24.865406	112.953446	0.000003	48.787549	-8231.212451	48.787549	4.365821	0.000049	2.830000	0.003767	0.025055	86.954929
18233.480009	0.999716	0.004628	0.999727	24.489536	114.580033	0.000002	2.289743	-8277.710257	2.289743	4.363211	0.000047	2.830000	0.003660	0.024699	86.998200
18496.124725	1.000429	0.003547	1.000435	24.113475	116.230055	0.000002	-50.042323	-8330.042323	-50.042323	4.358912	0.000044	2.830000	0.003557	0.024348	87.040856
18762.552716	0.999493	0.003231	0.999498	23.744720	117.903852	0.000002	-108.338075	-8388.338075	-108.338075	4.363440	0.000042	2.830000	0.003457	0.024003	87.082905
19032.818477	0.999925	0.004242	0.999934	23.370285	119.601766	0.000002	-172.669669	-8452.669669	-172.669669	4.361501	0.000039	2.830000	0.003359	0.023662	87.124355
19306.977289	1.000363	0.003139	1.000368	22.995426	121.324143	0.000002	116.916071	-8523.083929	116.916071	4.359067	0.000037	2.830000	0.003265	0.023326	87.165216
19585.085230	0.999221	0.003777	0.999228	22.627757	123.071337	0.000002	40.273155	-8599.726845	40.273155	4.365006	0.000035	2.830000	0.003173	0.022995	87.205495
19867.199185	1.000274	0.003686	1.000281	22.250420	124.843704	0.000002	-42.629569	-8682.629569	-42.629569	4.360074	0.000033	2.830000	0.003083	0.022668	87.245202
20000.000000	1.000573	0.003387	1.000579	22.075434	125.678020	0.000002	108.873608	-8531.126392	108.873608	4.358494	0.000032	2.830000	0.003042	0.022518	87.263505
